#Wave		#Intensity
4002.113281	2104.738770
4001.415039	1993.774536
4000.716797	2043.558960
4000.017578	2028.917114
3999.319336	1967.769165
3998.620117	2092.654297
3997.920898	1981.443115
3997.221680	2059.797607
3996.522461	2048.739990
3995.823242	2084.159668
3995.124023	1998.041260
3994.424805	2040.605103
3993.724609	2118.886719
3993.025391	2164.989990
3992.325195	1925.316895
3991.625000	2042.865112
3990.924805	2199.655029
3990.224609	2074.341309
3989.524414	2074.008057
3988.824219	2095.089600
3988.124023	2023.381470
3987.422852	1994.512329
3986.721680	2158.293457
3986.021484	1983.170898
3985.320313	2036.346436
3984.619141	2011.059326
3983.917969	2049.952637
3983.216797	2046.058716
3982.514648	2013.654053
3981.813477	1988.386597
3981.112305	1938.187378
3980.410156	2069.679932
3979.708008	2069.347412
3979.005859	2051.209473
3978.303711	2040.198120
3977.601563	2032.750488
3976.899414	1954.116821
3976.197266	2081.921143
3975.494141	2021.096069
3974.791992	2038.559937
3974.088867	2073.803711
3973.385742	2066.357422
3972.682617	1980.681885
3971.979492	2030.139404
3971.276367	2040.477783
3970.573242	1997.498779
3969.869141	1993.624268
3969.166016	2117.663330
3968.461914	2042.719604
3967.758789	2070.807373
3967.054688	2102.437500
3966.350586	2073.692871
3965.646484	1973.952271
3964.941406	2033.980103
3964.237305	2019.456909
3963.533203	2132.686523
3962.828125	2068.480225
3962.124023	2071.695313
3961.418945	2089.096924
3960.713867	2063.937256
3960.008789	2052.968750
3959.303711	2034.913208
3958.598633	2045.220093
3957.892578	2101.595703
3957.187500	2179.213867
3956.481445	2203.663818
3955.776367	2022.652710
3955.070313	2054.203369
3954.364258	1961.803345
3953.658203	2003.975464
3952.952148	1900.992920
3952.245117	2052.884277
3951.539063	1978.237915
3950.832031	2168.989502
3950.125977	2051.895264
3949.418945	1994.970947
3948.711914	2093.675781
3948.004883	2139.308105
3947.297852	2138.964600
3946.590820	2131.551270
3945.883789	2198.361572
3945.175781	2049.590088
3944.468750	1967.997070
3943.760742	2063.062256
3943.052734	2158.097168
3942.344727	2171.876709
3941.636719	2037.352173
3940.928711	2044.085815
3940.220703	1983.750854
3939.511719	2110.484863
3938.803711	2032.515259
3938.094727	2070.998047
3937.386719	2070.665527
3936.677734	2151.453613
3935.968750	2048.842285
3935.259766	2069.668457
3934.550781	2055.235107
3933.840820	2037.281494
3933.131836	2026.381958
3932.421875	2001.391602
3931.712891	2131.421631
3931.002930	2113.467285
3930.292969	2010.993408
3929.583008	2074.054199
3928.873047	2123.011719
3928.163086	2041.706787
3927.452148	1974.506226
3926.742188	2023.455933
3926.031250	2012.575684
3925.321289	2079.093262
3924.610352	2099.863525
3923.899414	2050.291260
3923.188477	1965.572754
3922.477539	2095.336914
3921.765625	1950.881348
3921.054688	2063.033203
3920.342773	1967.824951
3919.631836	1967.509033
3918.919922	2055.014404
3918.208008	2146.003662
3917.496094	2029.772583
3916.784180	2050.513672
3916.072266	1916.782227
3915.359375	2011.245239
3914.647461	1993.375122
3913.934570	1915.859375
3913.222656	2087.460449
3912.509766	2108.171875
3911.796875	2044.703735
3911.083984	1984.762573
3910.371094	2008.986572
3909.658203	1928.037231
3908.944336	2155.550049
3908.231445	2057.081055
3907.517578	2025.216309
3906.803711	2073.937256
3906.089844	1944.004028
3905.375977	2045.254272
3904.662109	2163.979980
3903.948242	2027.092773
3903.234375	2005.764648
3902.519531	2036.941895
3901.805664	2134.596436
3901.090820	2155.246582
3900.375977	1948.505981
3899.661133	2056.620605
3898.946289	2143.717773
3898.231445	2104.911865
3897.516602	2024.166870
3896.801758	2048.309814
3896.085938	2037.496704
3895.370117	2029.487305
3894.655273	2021.478027
3893.939453	2013.468628
3893.223633	2005.459351
3892.507813	1997.449951
3891.791992	2059.976074
3891.075195	2021.245483
3890.359375	2045.353638
3889.642578	2093.882813
3888.925781	2016.783325
3888.209961	2079.256104
3887.493164	2030.088745
3886.776367	2096.026611
3886.059570	2144.508545
3885.341797	2158.110107
3884.625000	1927.695313
3883.907227	2098.166992
3883.190430	2080.406738
3882.472656	2132.335938
3881.754883	2065.804443
3881.037109	2055.023682
3880.319336	2134.792236
3879.601563	2068.292236
3878.883789	2033.146362
3878.165039	2074.590332
3877.447266	2053.375732
3876.728516	2105.242432
3876.009766	2087.508789
3875.291016	2083.695313
3874.572266	2132.053955
3873.853516	2051.729248
3873.134766	2134.846680
3872.415039	1985.019409
3871.696289	1981.225220
3870.976563	2133.819580
3870.256836	2105.679443
3869.537109	2136.609131
3868.817383	2122.371826
3868.097656	2003.947876
3867.377930	2135.581055
3866.658203	2079.687500
3865.937500	2127.953125
3865.217773	2085.961914
3864.497070	2102.978516
3863.776367	2109.580566
3863.055664	2116.180664
3862.334961	2036.063477
3861.614258	2063.481201
3860.893555	2028.475342
3860.171875	1986.546875
3859.451172	2072.887451
3858.729492	1975.512207
3858.007813	2027.174194
3857.287109	2148.113525
3856.565430	2081.950195
3855.842773	2078.152588
3855.121094	2126.301758
3854.399414	2167.510498
3853.676758	1969.833252
3852.955078	2149.508301
3852.232422	2079.947266
3851.509766	2051.931641
3850.787109	2051.602539
3850.064453	1933.662598
3849.341797	2061.320313
3848.619141	2095.570068
3847.895508	1925.817383
3847.172852	2049.957764
3846.449219	2070.367432
3845.725586	2108.049316
3845.001953	2080.069092
3844.278320	1993.367676
3843.554688	2051.768555
3842.831055	2127.418945
3842.107422	2102.906250
3841.382813	2085.306641
3840.659180	2112.587646
3839.934570	2174.373779
3839.209961	2046.344360
3838.485352	2080.519043
3837.760742	2166.428467
3837.036133	1986.723999
3836.310547	2041.583252
3835.585938	2055.048096
3834.860352	2099.536377
3834.135742	2030.260376
3833.410156	2054.059570
3832.684570	2236.360596
3831.958984	2180.877197
3831.233398	2163.303711
3830.507813	2083.740234
3829.781250	2190.159180
3829.055664	2258.669678
3828.329102	2106.835693
3827.602539	2199.431641
3826.875977	2137.133057
3826.149414	2109.263184
3825.422852	2057.320068
3824.696289	2091.387939
3823.969727	2111.687988
3823.242188	2052.891846
3822.515625	2062.876953
3821.788086	2186.299072
3821.060547	2079.400635
3820.333008	2089.376709
3819.605469	2150.888184
3818.877930	2099.012695
3818.150391	2081.501953
3817.421875	2184.196533
3816.694336	2122.039307
3815.965820	2059.901855
3815.237305	2038.975952
3814.508789	2134.747070
3813.780273	2141.267822
3813.051758	2161.510254
3812.323242	2192.037354
3811.593750	2092.219727
3810.865234	2174.187988
3810.135742	2115.550293
3809.407227	2146.065186
3808.677734	2101.161377
3807.948242	2083.688721
3807.218750	2189.578369
3806.488281	2110.428955
3805.758789	2096.388672
3805.029297	2140.576416
3804.298828	2085.443359
3803.568359	2263.147949
3802.837891	2218.282471
3802.107422	2091.285889
3801.376953	2162.816406
3800.646484	2076.928955
3799.916016	2148.438721
3799.185547	2052.319336
3798.454102	2082.770264
3797.722656	2034.564209
3796.992188	2102.615723
3796.260742	2057.840332
3795.529297	2187.386475
3794.796875	2173.366699
3794.065430	2173.018311
3793.333984	2083.850098
3792.601563	2144.996826
3791.870117	2206.124023
3791.137695	2202.355713
3790.405273	2202.002686
3789.672852	2109.487549
3788.940430	2061.369385
3788.208008	2084.925293
3787.474609	2128.943848
3786.742188	2070.611816
3786.008789	2077.101318
3785.276367	2110.869629
3784.542969	2144.627197
3783.809570	2174.964600
3783.076172	2150.756592
3782.342773	2157.227783
3781.608398	2136.437500
3780.875000	2105.433350
3780.140625	2122.127441
3779.407227	2159.250488
3778.672852	2114.636719
3777.938477	2144.939697
3777.204102	2096.938232
3776.469727	2236.148682
3775.735352	2120.087158
3775.000000	2160.577148
3774.265625	2098.996094
3773.530273	2108.863770
3772.794922	2060.913818
3772.059570	2077.584961
3771.324219	2182.644531
3770.588867	2216.286865
3769.853516	2236.323486
3769.118164	2147.614014
3768.381836	2055.535156
3767.646484	2048.411621
3766.910156	2092.237549
3766.173828	2068.130615
3765.437500	2237.569092
3764.701172	2145.549316
3763.964844	2168.965576
3763.227539	2104.136475
3762.491211	2154.697510
3761.753906	2184.886230
3761.017578	2154.006836
3760.280273	2126.529053
3759.542969	2251.656982
3758.805664	2041.084717
3758.068359	2183.135986
3757.331055	2067.545898
3756.592773	2084.158936
3755.855469	2226.134766
3755.117188	2117.368652
3754.378906	2089.931396
3753.640625	2194.584229
3752.902344	2011.379883
3752.164063	2143.096680
3751.425781	2146.138184
3750.686523	2203.331299
3749.948242	2128.530518
3749.208984	2246.610107
3748.470703	2077.104736
3747.731445	2147.801270
3746.992188	2049.384277
3746.252930	2038.911987
3745.512695	2251.571777
3744.773438	2085.581299
3744.034180	2220.433350
3743.293945	2159.253418
3742.553711	2267.021729
3741.813477	2060.598389
3741.073242	2191.990234
3740.333008	2174.754395
3739.592773	2137.265381
3738.852539	2113.291748
3738.111328	2197.336182
3737.371094	2122.738770
3736.629883	2142.644043
3735.888672	2230.017090
3735.147461	2236.406006
3734.406250	2101.142822
3733.665039	2181.735840
3732.923828	2171.271729
3732.181641	2127.100830
3731.440430	2214.391846
3730.698242	2150.008545
3729.956055	2193.465820
3729.214844	2216.696289
3728.472656	2226.446045
3727.729492	2155.366211
3726.987305	2212.263672
3726.245117	2198.442383
3725.501953	2198.090088
3724.759766	2140.522461
3724.016602	2170.465088
3723.273438	2173.481934
3722.530273	2247.141113
3721.787109	2155.968018
3721.043945	2199.340332
3720.299805	2205.712646
3719.556641	2215.444824
3718.812500	2164.670410
3718.068359	2248.342285
3717.325195	2227.820801
3716.581055	2214.025146
3715.835938	2223.747803
3715.091797	2220.032715
3714.347656	2276.764160
3713.602539	2222.678955
3712.858398	2158.540039
3712.113281	2218.610107
3711.368164	2214.898682
3710.623047	2261.519043
3709.877930	2241.027588
3709.132813	2160.165527
3708.387695	2320.799805
3707.641602	2162.826416
3706.896484	2266.413086
3706.150391	2232.528564
3705.404297	2161.787109
3704.658203	2221.760010
3703.912109	2181.197510
3703.166016	2180.847900
3702.419922	2234.089844
3701.672852	2183.498047
3700.926758	2293.645020
3700.179688	2209.581299
3699.432617	2192.490723
3698.685547	2262.421631
3697.938477	2228.596680
3697.191406	2191.437012
3696.444336	2160.979248
3695.696289	2311.141602
3694.949219	2243.889160
3694.201172	2220.124756
3693.454102	2176.309814
3692.706055	2256.180908
3691.958008	2255.819336
3691.208984	2218.702393
3690.460938	2211.665039
3689.712891	2221.331787
3688.963867	2281.092529
3688.215820	2227.298584
3687.466797	2290.377686
3686.717773	2193.202637
3685.968750	2329.696045
3685.219727	2322.648438
3684.470703	2232.187988
3683.720703	2241.838623
3682.971680	2284.841309
3682.221680	2277.805176
3681.471680	2270.771240
3680.722656	2240.402100
3679.972656	2186.708740
3679.221680	2263.014404
3678.471680	2172.678955
3677.721680	2415.551758
3676.970703	2301.901855
3676.220703	2194.949707
3675.469727	2327.805908
3674.718750	2194.246582
3673.967773	2327.060059
3673.216797	2413.230713
3672.465820	2259.753174
3671.714844	2302.649170
3670.962891	2269.010254
3670.211914	2245.361328
3669.459961	2328.149902
3668.708008	2228.015137
3667.956055	2224.333252
3667.204102	2396.842041
3666.452148	2290.096436
3665.699219	2369.488037
3664.947266	2312.621826
3664.194336	2252.451660
3663.442383	2338.454346
3662.689453	2374.612061
3661.936523	2311.140137
3661.183594	2330.690430
3660.430664	2343.595215
3659.676758	2329.943604
3658.923828	2346.162598
3658.169922	2296.017578
3657.416992	2498.011963
3656.663086	2315.183350
3655.909180	2391.088379
3655.155273	2350.915527
3654.401367	2340.593018
3653.646484	2247.404785
3652.892578	2306.700928
3652.137695	2190.352051
3651.383789	2276.143311
3650.628906	2414.909180
3649.874023	2341.656250
3649.119141	2364.461914
3648.364258	2463.414307
3647.609375	2294.183594
3646.853516	2429.525391
3646.098633	2369.565918
3645.342773	2355.950684
3644.586914	2425.049561
3643.831055	2401.505859
3643.075195	2348.203857
3642.319336	2298.225830
3641.563477	2373.901855
3640.806641	2380.132813
3640.050781	2432.635010
3639.293945	2445.463867
3638.537109	2349.251709
3637.780273	2434.769531
3637.023438	2414.561035
3636.266602	2523.158691
3635.509766	2446.807861
3634.752930	2525.651855
3633.995117	2528.548340
3633.237305	2349.918945
3632.480469	2448.540039
3631.722656	2510.836182
3630.964844	2454.353271
3630.207031	2391.291748
3629.448242	2503.034180
3628.690430	2430.093018
3627.931641	2406.626465
3627.173828	2505.127441
3626.415039	2478.360596
3625.656250	2415.355469
3624.897461	2470.977295
3624.138672	2552.934326
3623.379883	2516.295898
3622.620117	2492.841309
3621.861328	2541.829834
3621.101563	2436.078613
3620.341797	2425.813965
3619.582031	2530.735596
3618.822266	2533.620605
3618.062500	2556.243896
3617.302734	2565.702393
3616.542969	2519.247803
3615.782227	2584.610352
3615.021484	2502.001709
3614.261719	2379.972412
3613.500977	2573.508301
3612.740234	2543.520020
3611.979492	2447.828125
3611.217773	2549.275391
3610.457031	2660.544189
3609.695313	2456.504150
3608.934570	2511.931152
3608.172852	2567.340576
3607.411133	2550.516602
3606.649414	2586.209961
3605.887695	2546.417969
3605.125977	2509.919678
3604.363281	2529.200195
3603.601563	2558.313965
3602.838867	2531.669189
3602.076172	2534.542480
3601.314453	2757.061768
3600.551758	2546.841553
3599.788086	2562.820068
3599.025391	2578.792969
3598.262695	2575.103760
3597.499023	2574.691162
3596.736328	2636.506836
3595.972656	2534.570557
3595.208984	2622.565674
3594.445313	2645.060791
3593.681641	2579.175537
3592.916992	2496.948975
3592.153320	2561.989258
3591.389648	2620.465576
3590.625000	2636.400635
3589.860352	2645.789795
3589.095703	2658.445557
3588.331055	2625.325684
3587.566406	2732.777832
3586.801758	2490.482178
3586.036133	2633.867676
3585.271484	2564.832275
3584.505859	2551.354248
3583.741211	2577.075684
3582.975586	2544.005371
3582.209961	2621.962891
3581.443359	2618.278076
3580.677734	2588.481201
3579.912109	2565.220947
3579.145508	2463.653564
3578.379883	2734.054199
3577.613281	2655.326416
3576.846680	2592.931641
3576.080078	2585.994141
3575.313477	2526.890625
3574.545898	2598.205566
3573.779297	2558.675781
3573.012695	2633.221436
3572.245117	2652.350098
3571.477539	2638.893555
3570.709961	2635.213379
3569.942383	2520.801514
3569.174805	2657.163330
3568.407227	2585.110107
3567.638672	2539.121826
3566.871094	2597.300781
3566.102539	2635.935547
3565.333984	2655.035645
3564.565430	2612.318604
3563.796875	2650.932373
3563.028320	2634.246826
3562.259766	2669.592773
3561.490234	2734.187500
3560.721680	2548.465576
3559.952148	2486.305908
3559.182617	2622.388672
3558.413086	2550.489990
3557.643555	2644.288086
3556.874023	2585.400635
3556.104492	2669.420654
3555.333984	2581.325439
3554.564453	2593.897461
3553.793945	2496.104736
3553.023438	2661.219727
3552.252930	2521.263916
3551.482422	2478.683350
3550.711914	2471.798584
3549.941406	2704.920898
3549.169922	2480.735107
3548.399414	2632.724365
3547.627930	2567.467529
3546.856445	2699.946777
3546.084961	2576.367188
3545.313477	2656.959229
3544.541992	2585.260742
3543.770508	2533.020020
3542.998047	2584.432373
3542.226563	2512.779785
3541.454102	2596.554688
3540.681641	2544.345459
3539.909180	2534.228027
3539.136719	2537.058105
3538.364258	2607.833252
3537.591797	2494.190186
3536.818359	2497.024902
3536.045898	2519.262695
3535.272461	2699.932373
3534.499023	2531.387207
3533.725586	2679.672852
3532.952148	2504.720947
3532.178711	2649.731934
3531.404297	2626.691162
3530.630859	2522.899414
3529.856445	2683.986572
3529.082031	2593.135742
3528.308594	2579.805176
3527.534180	2530.967773
3526.759766	2533.790039
3525.984375	2646.337402
3525.209961	2645.913574
3524.434570	2548.703369
3523.660156	2670.871094
3522.884766	2628.516113
3522.109375	2624.870117
3521.333984	2476.139160
3520.558594	2562.780273
3519.783203	2536.584961
3519.006836	2536.178467
3518.231445	2651.766846
3517.455078	2554.695068
3516.678711	2512.412354
3515.902344	2547.435547
3515.125977	2472.967041
3514.349609	2575.594727
3513.573242	2591.276855
3512.796875	2577.987793
3512.019531	2580.792725
3511.242188	2612.553467
3510.465820	2628.219482
3509.688477	2524.873779
3508.911133	2694.910889
3508.132813	2665.540771
3507.355469	2494.726563
3506.578125	2510.398438
3505.799805	2535.706787
3505.021484	2496.740723
3504.244141	2663.406006
3503.465820	2499.153076
3502.687500	2562.987793
3501.908203	2572.210938
3501.129883	2568.588135
3500.351563	2590.648193
3499.572266	2596.652344
3498.792969	2461.450195
3498.014648	2589.403076
3497.235352	2563.322754
3496.455078	2588.573242
3495.675781	2565.708496
3494.896484	2549.264160
3494.116211	2542.443604
3493.336914	2596.531250
3492.556641	2551.244141
3491.776367	2605.312988
3490.996094	2601.691406
3490.215820	2527.593018
3489.435547	2540.000244
3488.655273	2600.440918
3487.874023	2513.570313
3487.092773	2490.757080
3486.312500	2509.563721
3485.531250	2537.965820
3484.750000	2486.359863
3483.968750	2569.146729
3483.186523	2507.955566
3482.405273	2523.545898
3481.623047	2465.579346
3480.841797	2618.658691
3480.059570	2557.498535
3479.277344	2544.303223
3478.495117	2515.132813
3477.712891	2521.120361
3476.930664	2412.092529
3476.147461	2533.089844
3475.365234	2468.807861
3474.582031	2525.891357
3473.798828	2458.438232
3473.015625	2537.851074
3472.232422	2540.635986
3471.449219	2572.141357
3470.666016	2661.069580
3469.881836	2491.561523
3469.098633	2516.679932
3468.314453	2640.655273
3467.530273	2442.533691
3466.746094	2496.341064
3465.961914	2486.378174
3465.177734	2654.898926
3464.392578	2571.620605
3463.608398	2596.697510
3462.823242	2666.365234
3462.039063	2592.680176
3461.253906	2671.879883
3460.468750	2483.590332
3459.683594	2546.863770
3458.897461	2530.540283
3458.112305	2647.889404
3457.326172	2539.275391
3456.541016	2627.951660
3455.754883	2433.487549
3454.968750	2394.931396
3454.182617	2454.967773
3453.396484	2572.215820
3452.610352	2594.056641
3451.823242	2536.428223
3451.037109	2609.114990
3450.250000	2599.164551
3449.462891	2560.624512
3448.675781	2557.037598
3447.888672	2632.850342
3447.101563	2607.024902
3446.314453	2597.082275
3445.526367	2542.701172
3444.739258	2466.120117
3443.951172	2526.019287
3443.163086	2427.255127
3442.375000	2655.276855
3441.586914	2642.163818
3440.798828	2610.026855
3440.009766	2628.633545
3439.221680	2485.546875
3438.432617	2542.205566
3437.644531	2563.983398
3436.855469	2569.910156
3436.066406	2525.141846
3435.277344	2632.442383
3434.487305	2492.659668
3433.698242	2492.260010
3432.908203	2548.853516
3432.119141	2542.113525
3431.329102	2434.087158
3430.539063	2544.463379
3429.749023	2756.060303
3428.958984	2518.337891
3428.168945	2584.362061
3427.377930	2596.598877
3426.587891	2599.344727
3425.796875	2519.885254
3425.005859	2617.478760
3424.214844	2582.291504
3423.423828	2499.712646
3422.632813	2537.228271
3421.840820	2457.842041
3421.049805	2539.573486
3420.257813	2526.533691
3419.466797	2567.178467
3418.674805	2592.024170
3417.882813	2575.825439
3417.090820	2490.196777
3416.297852	2483.486328
3415.505859	2498.863770
3414.713867	2555.246582
3413.920898	2488.600342
3413.127930	2551.273682
3412.334961	2582.395752
3411.541992	2509.471924
3410.749023	2597.328369
3409.956055	2489.758057
3409.162109	2511.416504
3408.369141	2577.176025
3407.575195	2479.110596
3406.781250	2478.713135
3405.987305	2629.470947
3405.193359	2603.861084
3404.399414	2458.632813
3403.605469	2473.976563
3402.810547	2470.432861
3402.016602	2554.993652
3401.221680	2582.898193
3400.426758	2569.902100
3399.631836	2575.780273
3398.836914	2481.031494
3398.041992	2505.785889
3397.247070	2429.939697
3396.451172	2489.267334
3395.655273	2514.008301
3394.860352	2482.185303
3394.064453	2538.334473
3393.268555	2515.940430
3392.472656	2562.644531
3391.675781	2515.133789
3390.879883	2499.033203
3390.083008	2476.659668
3389.287109	2548.447510
3388.490234	2406.830078
3387.693359	2494.293457
3386.896484	2550.359131
3386.099609	2493.493652
3385.301758	2433.510498
3384.504883	2517.777832
3383.707031	2573.803467
3382.909180	2438.609131
3382.112305	2516.567139
3381.314453	2550.631592
3380.515625	2597.216797
3379.717773	2512.224365
3378.919922	2502.425781
3378.121094	2523.944580
3377.323242	2526.670898
3376.524414	2463.656982
3375.725586	2579.069580
3374.926758	2512.937988
3374.127930	2531.308594
3373.328125	2568.443848
3372.529297	2530.496826
3371.729492	2523.836182
3370.930664	2439.004395
3370.130859	2541.785400
3369.331055	2528.874268
3368.531250	2509.716064
3367.731445	2506.188721
3366.930664	2562.026611
3366.130859	2480.393799
3365.330078	2620.550049
3364.529297	2504.581787
3363.729492	2547.894043
3362.928711	2466.315430
3362.126953	2472.162842
3361.326172	2474.887451
3360.525391	2533.778320
3359.723633	2480.333496
3358.922852	2508.010498
3358.121094	2535.678467
3357.319336	2532.153564
3356.517578	2438.209961
3355.715820	2497.049805
3354.913086	2515.350830
3354.111328	2511.831055
3353.308594	2464.689697
3352.506836	2439.371094
3351.704102	2569.806396
3350.901367	2532.021240
3350.098633	2540.956787
3349.294922	2553.002930
3348.492188	2509.012695
3347.688477	2446.362061
3346.885742	2424.186279
3346.082031	2523.362793
3345.278320	2544.734619
3344.474609	2329.707275
3343.670898	2494.159668
3342.867188	2419.133301
3342.062500	2496.468506
3341.258789	2570.670410
3340.454102	2520.531250
3339.649414	2560.523682
3338.844727	2494.867432
3338.040039	2609.405273
3337.235352	2506.490967
3336.429688	2502.983398
3335.625000	2533.631348
3334.819336	2452.509521
3334.014648	2476.947754
3333.208984	2554.136719
3332.403320	2581.653564
3331.596680	2537.805176
3330.791016	2413.319824
3329.985352	2549.396973
3329.178711	2381.536133
3328.373047	2595.085938
3327.566406	2452.071289
3326.759766	2541.562500
3325.953125	2544.253906
3325.145508	2587.224365
3324.338867	2369.951172
3323.532227	2539.932373
3322.724609	2499.264160
3321.916992	2554.599854
3321.109375	2504.654297
3320.301758	2587.830811
3319.494141	2559.560791
3318.686523	2658.174072
3317.878906	2518.517578
3317.070313	2567.609619
3316.261719	2505.337646
3315.454102	2585.341064
3314.645508	2560.190186
3313.836914	2541.230225
3313.027344	2503.730225
3312.218750	2552.777100
3311.410156	2515.287109
3310.600586	2505.614990
3309.791016	2520.658447
3308.981445	2588.201904
3308.171875	2572.346436
3307.362305	2504.007568
3306.552734	2460.386963
3305.743164	2493.944580
3304.932617	2558.351807
3304.122070	2585.711670
3303.312500	2606.892334
3302.501953	2523.190186
3301.691406	2516.617188
3300.879883	2473.043213
3300.069336	2398.652100
3299.258789	2469.166992
3298.447266	2363.979248
3297.635742	2505.354248
3296.824219	2557.331299
3296.012695	2535.356689
3295.201172	2568.831299
3294.389648	2574.578369
3293.578125	2558.769531
3292.765625	2564.516357
3291.953125	2561.026611
3291.141602	2514.450684
3290.329102	2400.192139
3289.516602	2547.487305
3288.703125	2593.221191
3287.890625	2460.550537
3287.078125	2561.637207
3286.264648	2521.255127
3285.451172	2514.702148
3284.637695	2535.814453
3283.824219	2473.943115
3283.010742	2562.655273
3282.197266	2583.749756
3281.383789	2488.111084
3280.569336	2450.856934
3279.754883	2554.869385
3278.940430	2514.545898
3278.126953	2612.375000
3277.311523	2532.154541
3276.497070	2390.583984
3275.682617	2390.200439
3274.867188	2432.766113
3274.052734	2505.990967
3273.237305	2661.996582
3272.421875	2517.452148
3271.606445	2529.311279
3270.791016	2611.669678
3269.975586	2442.683838
3269.159180	2426.969971
3268.343750	2582.837646
3267.527344	2453.761475
3266.710938	2477.870605
3265.894531	2508.096924
3265.078125	2431.146973
3264.261719	2599.134033
3263.445313	2577.290527
3262.627930	2353.465820
3261.811523	2444.885986
3260.994141	2572.990234
3260.176758	2496.103516
3259.359375	2477.352051
3258.541992	2498.360352
3257.724609	2528.533936
3256.906250	2375.278809
3256.088867	2439.083984
3255.270508	2536.484619
3254.452148	2465.800537
3253.633789	2480.679932
3252.815430	2519.990723
3251.997070	2495.153809
3251.177734	2494.753418
3250.359375	2543.201904
3249.540039	2530.583252
3248.720703	2566.802246
3247.902344	2523.667725
3247.083008	2480.547119
3246.262695	2409.984863
3245.443359	2427.898682
3244.624023	2586.090088
3243.803711	2494.200439
3242.983398	2466.362305
3242.163086	2520.833252
3241.342773	2557.000732
3240.522461	2626.675537
3239.702148	2443.451904
3238.881836	2503.983887
3238.060547	2457.895996
3237.240234	2524.496582
3236.418945	2493.643799
3235.597656	2569.349854
3234.776367	2581.112305
3233.955078	2547.221924
3233.132813	2507.256592
3232.311523	2567.700195
3231.489258	2524.702637
3230.666992	2594.247559
3229.845703	2596.871826
3229.022461	2599.495361
3228.200195	2574.759033
3227.377930	2565.227539
3226.555664	2522.271240
3225.732422	2594.787842
3224.909180	2472.854980
3224.086914	2563.580322
3223.263672	2578.353271
3222.440430	2587.048828
3221.616211	2407.511963
3220.792969	2510.331299
3219.968750	2555.452881
3219.145508	2558.076904
3218.321289	2512.156250
3217.497070	2536.020996
3216.672852	2511.349365
3215.848633	2623.150146
3215.024414	2583.312256
3214.199219	2610.181641
3213.375000	2597.638184
3212.549805	2494.180664
3211.724609	2430.147705
3210.899414	2566.090576
3210.074219	2623.232178
3209.249023	2568.295166
3208.422852	2652.671143
3207.597656	2573.525635
3206.771484	2621.547363
3205.945313	2554.538818
3205.119141	2542.023682
3204.292969	2677.773438
3203.466797	2517.005127
3202.640625	2604.319092
3201.813477	2634.143555
3200.987305	2654.886963
3200.160156	2521.435303
3199.333008	2563.349609
3198.505859	2565.960205
3197.678711	2556.482666
3196.850586	2537.943848
3196.023438	2534.515381
3195.195313	2591.495605
3194.368164	2612.218750
3193.540039	2620.857422
3192.711914	2581.190186
3191.883789	2454.000732
3191.055664	2619.594727
3190.226563	2595.033936
3189.398438	2489.022217
3188.569336	2545.936035
3187.740234	2506.318848
3186.911133	2704.942139
3186.082031	2629.131104
3185.252930	2655.839844
3184.423828	2564.990479
3183.593750	2573.619385
3182.763672	2546.087646
3181.934570	2630.032715
3181.104492	2506.111816
3180.274414	2565.942627
3179.444336	2589.619873
3178.613281	2565.118164
3177.783203	2585.777588
3176.952148	2633.517822
3176.122070	2572.909912
3175.291016	2617.627930
3174.459961	2686.397949
3173.628906	2643.857178
3172.796875	2661.476318
3171.965820	2576.857178
3171.133789	2612.519531
3170.302734	2588.052734
3169.470703	2656.760742
3168.638672	2602.245605
3167.806641	2664.920410
3166.974609	2670.500000
3166.141602	2603.994873
3165.309570	2531.505127
3164.476563	2663.208008
3163.644531	2587.729736
3162.811523	2611.326172
3161.978516	2628.912842
3161.144531	2610.487061
3160.311523	2661.068848
3159.478516	2606.648682
3158.644531	2678.208496
3157.810547	2671.780762
3156.977539	2587.403320
3156.143555	2667.924561
3155.308594	2520.633545
3154.474609	2640.096680
3153.640625	2618.698730
3152.805664	2612.286621
3151.970703	2638.823975
3151.136719	2620.431396
3150.301758	2623.004395
3149.466797	2541.749756
3148.630859	2679.034668
3147.795898	2570.861328
3146.959961	2636.280518
3146.125000	2701.678467
3145.289063	2524.750977
3144.453125	2638.000488
3143.617188	2601.691162
3142.781250	2598.282959
3141.945313	2633.739258
3141.108398	2609.403809
3140.271484	2597.030273
3139.435547	2590.636719
3138.598633	2524.493896
3137.761719	2413.565918
3136.924805	2592.374268
3136.086914	2621.818848
3135.250000	2627.368652
3134.412109	2537.391357
3133.575195	2653.386230
3132.737305	2533.591309
3131.899414	2610.760986
3131.061523	2592.441895
3130.222656	2711.335938
3129.384766	2621.431396
3128.545898	2597.155518
3127.708008	2686.177734
3126.869141	2632.090576
3126.030273	2724.059082
3125.191406	2652.103516
3124.352539	2663.594971
3123.512695	2609.545898
3122.673828	2618.061768
3121.833984	2680.178223
3120.994141	2551.715088
3120.154297	2658.477295
3119.314453	2705.674561
3118.474609	2651.670410
3117.634766	2612.561523
3116.793945	2591.315674
3115.954102	2623.619873
3115.113281	2560.740967
3114.272461	2533.566162
3113.431641	2610.461914
3112.590820	2595.178467
3111.750000	2594.761230
3110.908203	2632.976807
3110.067383	2570.156494
3109.225586	2513.298096
3108.383789	2569.330078
3107.541992	2693.650391
3106.700195	2607.105713
3105.858398	2565.121826
3105.015625	2632.982910
3104.173828	2685.982422
3103.331055	2596.526611
3102.488281	2584.241211
3101.645508	2646.122070
3100.802734	2556.715820
3099.959961	2597.822266
3099.116211	2647.810791
3098.273438	2623.667969
3097.429688	2578.784424
3096.585938	2560.587646
3095.743164	2652.033936
3094.898438	2642.719482
3094.054688	2586.012451
3093.210938	2547.093750
3092.366211	2650.328369
3091.522461	2641.019531
3090.677734	2575.468018
3089.833008	2640.170166
3088.988281	2583.517578
3088.143555	2636.361816
3087.297852	2609.312256
3086.453125	2594.102783
3085.607422	2697.196533
3084.762695	2637.623047
3083.916992	2604.677246
3083.071289	2548.093750
3082.225586	2609.750488
3081.378906	2511.813232
3080.533203	2511.408936
3079.686523	2682.344238
3078.839844	2546.044922
3077.994141	2640.136719
3077.147461	2663.333740
3076.299805	2642.239502
3075.453125	2597.538330
3074.606445	2676.804688
3073.758789	2682.275635
3072.912109	2643.489990
3072.064453	2693.212158
3071.216797	2542.360596
3070.369141	2730.681152
3069.520508	2565.130127
3068.672852	2564.717285
3067.824219	2579.041992
3066.976563	2563.892090
3066.127930	2581.158691
3065.279297	2501.199951
3064.430664	2577.382568
3063.582031	2606.418945
3062.732422	2620.722656
3061.883789	2576.138428
3061.034180	2616.935547
3060.184570	2575.309570
3059.334961	2663.177246
3058.485352	2633.325928
3057.635742	2644.669434
3056.786133	2635.419922
3055.935547	2667.344971
3055.084961	2687.498291
3054.235352	2631.207764
3053.384766	2533.783447
3052.534180	2697.956787
3051.683594	2635.814697
3050.832031	2608.948242
3049.981445	2699.592041
3049.129883	2534.682129
3048.278320	2695.786377
3047.426758	2680.671875
3046.575195	2683.176270
3045.723633	2618.170654
3044.872070	2559.055176
3044.019531	2676.012207
3043.167969	2684.382813
3042.315430	2610.618652
3041.462891	2595.534424
3040.610352	2612.710693
3039.757813	2635.745117
3038.905273	2644.114990
3038.051758	2541.107178
3037.199219	2558.280762
3036.345703	2657.488037
3035.492188	2721.509521
3034.638672	2577.548828
3033.785156	2623.990723
3032.931641	2579.646973
3032.077148	2710.974609
3031.223633	2672.485107
3030.369141	2610.594727
3029.514648	2577.986084
3028.660156	2612.679932
3027.805664	2600.558350
3026.951172	2690.808105
3026.095703	2666.980225
3025.241211	2730.875488
3024.385742	2660.274902
3023.530273	2691.998535
3022.674805	2533.753418
3021.819336	2580.096924
3020.963867	2673.169434
3020.107422	2573.424072
3019.251953	2622.659180
3018.395508	2636.837158
3017.539063	2598.457520
3016.682617	2735.239014
3015.826172	2626.807617
3014.969727	2640.975586
3014.113281	2666.810059
3013.255859	2605.117920
3012.398438	2724.287109
3011.541992	2545.952393
3010.684570	2708.830322
3009.827148	2623.847900
3008.968750	2687.553467
3008.111328	2634.660645
3007.252930	2663.376221
3006.395508	2735.784912
3005.537109	2674.170410
3004.678711	2598.012939
3003.820313	2536.440430
3002.961914	2655.408691
3002.102539	2605.491211
3001.244141	2631.267822
3000.384766	2604.652100
2999.525391	2569.315430
2998.666016	2691.091553
2997.806641	2609.211182
2996.947266	2684.407959
2996.087891	2678.159912
2995.227539	2634.117188
2994.367188	2601.716553
2993.507813	2688.491699
2992.647461	2650.280518
2991.787109	2649.853516
2990.925781	2693.002930
2990.065430	2709.996582
2989.205078	2622.436035
2988.343750	2630.724365
2987.482422	2621.591064
2986.621094	2693.737061
2985.759766	2675.889404
2984.898438	2591.306152
2984.037109	2660.520508
2983.174805	2535.354736
2982.312500	2572.651367
2981.451172	2647.635254
2980.588867	2638.510254
2979.726563	2620.691162
2978.864258	2646.355469
2978.000977	2614.050537
2977.138672	2645.502686
2976.275391	2656.665039
2975.412109	2757.620117
2974.548828	2574.715576
2973.685547	2603.257813
2972.822266	2597.047852
2971.958984	2582.155273
2971.094727	2636.731445
2970.231445	2563.959961
2969.367188	2696.643066
2968.502930	2710.673096
2967.638672	2663.956787
2966.774414	2848.615234
2965.909180	2657.315186
2965.044922	2633.758301
2964.179688	2673.802246
2963.314453	2710.943115
2962.450195	2681.609375
2961.583984	2681.177246
2960.718750	2663.412598
2959.853516	2732.301758
2958.987305	2705.871338
2958.122070	2589.941650
2957.255859	2745.415283
2956.389648	2713.222168
2955.523438	2577.145752
2954.657227	2599.813965
2953.791016	2533.039795
2952.923828	2639.359619
2952.056641	2687.963379
2951.190430	2696.180908
2950.323242	2664.031738
2949.456055	2649.188721
2948.587891	2700.641846
2947.720703	2772.250244
2946.853516	2682.483398
2945.985352	2647.480957
2945.117188	2595.207520
2944.249023	2718.624756
2943.380859	2721.065918
2942.512695	2651.531982
2941.644531	2700.039063
2940.775391	2630.530518
2939.907227	2725.066650
2939.038086	2675.716309
2938.168945	2617.751709
2937.299805	2617.329834
2936.430664	2642.789307
2935.560547	2581.982666
2934.691406	2716.681641
2933.821289	2624.264893
2932.951172	2741.670410
2932.081055	2712.494141
2931.210938	2806.863770
2930.340820	2680.022217
2929.470703	2734.158203
2928.599609	2796.891602
2927.729492	2764.858398
2926.858398	2727.094482
2925.987305	2643.419922
2925.116211	2677.429932
2924.244141	2671.259766
2923.373047	2705.254150
2922.501953	2727.764404
2921.629883	2672.835205
2920.757813	2637.995605
2919.885742	2669.106201
2919.013672	2694.473877
2918.141602	2668.245117
2917.269531	2679.276855
2916.396484	2630.138428
2915.523438	2672.683350
2914.651367	2769.633545
2913.778320	2763.459229
2912.904297	2748.697266
2912.031250	2739.665771
2911.158203	2762.122070
2910.284180	2698.716064
2909.411133	2658.221436
2908.537109	2752.202881
2907.663086	2660.224121
2906.789063	2762.754883
2905.915039	2710.837402
2905.040039	2721.836426
2904.166016	2772.852295
2903.291016	2735.249023
2902.416016	2783.388428
2901.541016	2654.364014
2900.666016	2742.495605
2899.791016	2730.627686
2898.915039	2713.052246
2898.040039	2604.109863
2897.164063	2720.741455
2896.288086	2691.757813
2895.412109	2734.133545
2894.536133	2696.596191
2893.660156	2778.900391
2892.783203	2772.746826
2891.907227	2803.673096
2891.030273	2657.783936
2890.153320	2757.148438
2889.276367	2642.672363
2888.399414	2767.659912
2887.522461	2821.360352
2886.644531	2741.121826
2885.767578	2726.434814
2884.889648	2720.297852
2884.011719	2734.098877
2883.133789	2699.486816
2882.255859	2679.121582
2881.377930	2701.462158
2880.499023	2743.718750
2879.621094	2603.835693
2878.742188	2708.689941
2877.863281	2802.131348
2876.984375	2665.150391
2876.105469	2676.095703
2875.226563	2803.617920
2874.346680	2680.917725
2873.466797	2802.712891
2872.587891	2813.628662
2871.708008	2750.659424
2870.828125	2622.364502
2869.948242	2687.276611
2869.067383	2729.446045
2868.187500	2765.922119
2867.306641	2720.046875
2866.425781	2708.252197
2865.544922	2662.400879
2864.664063	2806.705078
2863.783203	2675.728516
2862.902344	2783.102783
2862.020508	2793.999512
2861.139648	2714.137939
2860.257813	2708.028320
2859.375977	2764.294678
2858.494141	2752.509277
2857.612305	2732.225098
2856.729492	2782.792236
2855.847656	2677.509277
2854.964844	2696.906982
2854.082031	2704.968750
2853.199219	2715.859863
2852.316406	2760.725586
2851.433594	2771.603760
2850.549805	2686.238281
2849.666992	2688.634521
2848.783203	2654.244141
2847.899414	2741.521484
2847.015625	2619.441650
2846.131836	2709.524414
2845.248047	2669.496826
2844.363281	2680.375244
2843.479492	2742.135254
2842.594727	2654.071045
2841.709961	2577.339600
2840.825195	2661.690430
2839.940430	2587.807373
2839.055664	2658.006104
2838.169922	2742.302734
2837.285156	2727.740967
2836.399414	2752.709961
2835.513672	2633.706055
2834.627930	2689.728271
2833.742188	2655.430664
2832.856445	2719.895508
2831.969727	2600.973389
2831.083984	2719.016602
2830.197266	2749.598389
2829.310547	2802.727539
2828.423828	2669.772705
2827.537109	2765.178223
2826.649414	2823.915283
2825.762695	2696.656982
2824.875000	2842.724365
2823.987305	2729.588623
2823.099609	2746.046387
2822.211914	2686.466553
2821.324219	2728.265625
2820.436523	2722.194580
2819.547852	2713.310791
2818.659180	2715.686523
2817.771484	2678.669189
2816.882813	2818.899902
2815.993164	2731.246826
2815.104492	2654.871826
2814.215820	2713.492676
2813.326172	2727.111572
2812.437500	2813.811768
2811.547852	2757.145996
2810.658203	2739.839844
2809.768555	2759.064453
2808.877930	2817.611328
2807.988281	2746.937744
2807.097656	2844.783447
2806.207031	2712.355957
2805.317383	2784.908936
2804.426758	2762.003418
2803.535156	2725.072998
2802.644531	2738.662598
2801.753906	2735.414307
2800.862305	2706.921143
2799.970703	2790.622803
2799.079102	2720.066895
2798.187500	2803.739258
2797.295898	2780.859863
2796.404297	2805.635742
2795.511719	2737.925049
2794.619141	2799.124756
2793.727539	2751.047119
2792.834961	2658.168701
2791.942383	2831.374023
2791.048828	2839.316406
2790.156250	2724.071289
2789.262695	2737.626953
2788.370117	2851.933105
2787.476563	2781.514404
2786.583008	2767.075439
2785.689453	2822.575928
2784.794922	2693.459961
2783.901367	2807.680664
2783.006836	2745.713623
2782.113281	2789.999023
2781.218750	2747.620850
2780.324219	2755.560547
2779.429688	2791.439941
2778.534180	2830.101318
2777.639648	2717.910400
2776.744141	2798.464355
2775.848633	2856.652588
2774.954102	2886.902344
2774.058594	2791.523682
2773.162109	2832.938232
2772.266602	2748.761230
2771.370117	2787.378906
2770.474609	2839.932861
2769.578125	2800.423584
2768.681641	2947.777832
2767.785156	2824.613037
2766.888672	2835.307617
2765.991211	2773.524902
2765.094727	2800.946289
2764.197266	2814.426025
2763.299805	2794.467773
2762.402344	2852.514648
2761.504883	2846.482666
2760.607422	2854.376465
2759.708984	2853.914551
2758.811523	2856.236572
2757.913086	2886.391846
2757.014648	2922.103271
2756.116211	2849.285400
2755.217773	2868.298828
2754.319336	2853.926514
2753.419922	2789.498291
2752.520508	2839.099609
2751.622070	2777.474365
2750.722656	2918.795166
2749.823242	2915.543457
2748.922852	2812.251953
2748.023438	2917.378174
2747.124023	2811.341797
2746.223633	2780.333740
2745.323242	2799.323486
2744.422852	2801.647217
2743.522461	2851.165527
2742.622070	2786.861572
2741.720703	2889.096924
2740.820313	2794.283936
2739.918945	2832.673584
2739.017578	2920.981689
2738.116211	2698.627930
2737.214844	2745.333252
2736.313477	2755.979248
2735.411133	2880.280518
2734.509766	2885.357666
2733.607422	2746.327148
2732.705078	2751.424316
2731.802734	2914.430664
2730.900391	2853.020508
2729.997070	2791.630371
2729.094727	2782.871338
2728.191406	2846.097900
2727.288086	2912.072266
2726.384766	2731.701416
2725.481445	2883.457031
2724.578125	2896.823975
2723.673828	2921.252197
2722.770508	2765.889160
2721.866211	2848.404541
2720.961914	2767.758545
2720.057617	2858.540527
2719.153320	2877.426270
2718.249023	2807.868896
2717.343750	2727.281494
2716.439453	2801.434082
2715.534180	2875.562744
2714.628906	2808.812500
2713.723633	2880.154297
2712.818359	2857.600098
2711.912109	2821.250488
2711.006836	2762.832031
2710.100586	2853.452148
2709.194336	2852.989990
2708.289063	2927.013672
2707.381836	2769.317383
2706.475586	2904.002930
2705.569336	2829.083008
2704.662109	2743.159424
2703.754883	2808.870850
2702.848633	2725.734375
2701.941406	2835.517090
2701.033203	2857.098877
2700.125977	2818.070068
2699.218750	2820.367920
2698.310547	2839.187744
2697.402344	2703.812500
2696.494141	2882.314697
2695.585938	2840.560547
2694.677734	2801.571777
2693.769531	2883.665527
2692.860352	2742.889893
2691.951172	2943.246338
2691.042969	2832.759521
2690.133789	2755.305908
2689.224609	2804.347900
2688.314453	2900.105469
2687.405273	2888.641602
2686.495117	2857.945313
2685.585938	2769.559570
2684.675781	2846.030518
2683.765625	2823.595947
2682.854492	2869.824463
2681.944336	2899.562988
2681.034180	2824.968506
2680.123047	2802.551514
2679.211914	2955.787354
2678.300781	2669.930176
2677.389648	2867.034912
2676.478516	2800.735107
2675.567383	2816.737061
2674.655273	2799.827148
2673.743164	2898.077881
2672.831055	2842.781250
2671.918945	2940.992920
2671.006836	2830.897705
2670.094727	2879.759277
2669.182617	2892.990234
2668.269531	2870.608154
2667.356445	2840.017334
2666.443359	2845.033203
2665.530273	2880.163330
2664.617188	2816.737305
2663.704102	2854.597412
2662.790039	2889.708740
2661.875977	2779.799072
2660.962891	2782.083984
2660.048828	2891.038330
2659.134766	2890.569580
2658.219727	2723.311768
2657.305664	2834.956055
2656.390625	2911.030518
2655.476563	2817.639404
2654.561523	2825.379883
2653.646484	2811.261475
2652.730469	2846.316162
2651.815430	2821.274414
2650.900391	2883.623047
2649.984375	2937.760498
2649.068359	2866.308838
2648.152344	2917.701904
2647.236328	2862.650146
2646.320313	2837.629395
2645.404297	2758.055908
2644.487305	2872.167969
2643.570313	2868.974854
2642.653320	2871.236084
2641.736328	2955.284912
2640.819336	2870.304688
2639.902344	2921.621582
2638.984375	2967.471924
2638.067383	2901.602295
2637.149414	2895.683350
2636.231445	2889.766357
2635.313477	2900.190186
2634.395508	2807.146484
2633.476563	2839.358643
2632.558594	2898.778809
2631.639648	2830.273193
2630.720703	2889.675293
2629.801758	2845.677979
2628.882813	2956.739990
2627.963867	2871.951172
2627.044922	2942.184570
2626.125000	2952.582275
2625.205078	2954.821289
2624.285156	2826.601318
2623.365234	2807.120361
2622.445313	2969.685059
2621.525391	2963.770020
2620.604492	3031.192139
2619.683594	2935.651367
2618.763672	2848.287354
2617.842773	2842.395264
2616.920898	2888.078125
2616.000000	2868.612061
2615.079102	2927.842773
2614.157227	2989.767578
2613.235352	2829.239014
2612.314453	2950.826904
2611.391602	2950.347900
2610.469727	2798.037354
2609.547852	2809.772217
2608.625000	2821.507080
2607.703125	2833.241699
2606.780273	2844.976563
2605.857422	2856.711426
2604.934570	2868.446289
2604.011719	2895.062744
2603.087891	2845.853027
2602.165039	2864.342041
2601.241211	2904.480225
2600.317383	2971.669678
2599.393555	2963.069092
2598.469727	2957.177002
2597.544922	2856.607178
2596.621094	2915.646484
2595.696289	2898.947510
2594.771484	2893.069092
2593.846680	2879.082520
2592.921875	2913.752930
2591.997070	2899.767334
2591.072266	2850.659668
2590.146484	2879.914307
2589.220703	2987.493408
2588.294922	2876.278320
2587.369141	2951.419189
2586.443359	3053.534424
2585.517578	2793.894531
2584.590820	2893.302979
2583.665039	2938.708008
2582.738281	2970.607910
2581.811523	2881.102539
2580.884766	2896.817871
2579.957031	2885.560303
2579.030273	2850.039063
2578.102539	2779.482422
2577.175781	3037.796143
2576.248047	2929.501221
2575.320313	2880.522461
2574.391602	2966.267578
2573.463867	2906.523926
2572.536133	2897.971924
2571.607422	2932.508057
2570.678711	2913.184570
2569.750000	2939.631104
2568.821289	2869.173584
2567.892578	2844.487549
2566.962891	2860.169189
2566.034180	2943.101318
2565.104492	2802.754395
2564.174805	2823.813477
2563.245117	2890.577393
2562.315430	3013.777344
2561.384766	3042.855957
2560.455078	2956.358398
2559.524414	2993.498047
2558.593750	3041.372803
2557.663086	2938.799316
2556.732422	2954.436768
2555.801758	2959.327637
2554.870117	2983.011230
2553.939453	3009.371826
2553.007813	2936.411865
2552.076172	2949.352783
2551.144531	2849.593750
2550.212891	2937.662842
2549.280273	2969.373779
2548.348633	2947.435547
2547.416016	3027.401123
2546.483398	2876.770020
2545.550781	2897.747314
2544.618164	3058.086914
2543.685547	2995.955566
2542.751953	2885.616943
2541.819336	2908.706543
2540.885742	2931.796387
2539.952148	2954.885986
2539.018555	2977.975830
2538.084961	3001.065430
2537.150391	2997.900879
2536.216797	3029.528320
2535.282227	3090.579834
2534.347656	2972.359863
2533.413086	2985.251465
2532.478516	2888.483154
2531.543945	3080.547607
2530.608398	2932.995850
2529.673828	2903.113281
2528.738281	3135.173340
2527.802734	3003.718262
2526.867188	3008.573486
2525.930664	3026.784668
2524.995117	3018.279053
2524.058594	3025.800049
2523.123047	2971.904297
2522.186523	3019.476318
2521.250000	3013.646484
2520.312500	2962.447510
2519.375977	2956.628906
2518.439453	3017.511963
2517.501953	2910.318115
2516.564453	2891.174805
2515.626953	2933.371582
2514.689453	2978.220947
2513.751953	3012.392334
2512.813477	2921.278564
2511.875977	2920.803223
2510.937500	3021.580078
2509.999023	3037.073242
2509.060547	3009.942383
2508.122070	3081.359863
2507.182617	2894.462402
2506.244141	3037.759277
2505.304688	3050.574463
2504.365234	2967.571533
2503.425781	2879.273438
2502.486328	2950.641846
2501.546875	2971.443359
2500.606445	2955.001221
2499.666016	2949.201416
2498.726563	3057.736328
2497.786133	2924.315430
2496.845703	3054.083008
2495.904297	3074.846680
2494.963867	2952.116455
2494.022461	3007.427490
2493.081055	3044.126221
2492.140625	2955.986816
2491.199219	2952.850098
2490.256836	3010.779541
2489.315430	2999.671143
2488.373047	2932.829102
2487.431641	3065.037354
2486.489258	2992.899658
2485.546875	3101.179199
2484.604492	3018.449463
2483.661133	2975.526123
2482.718750	2961.783936
2481.775391	3101.811035
2480.833008	2992.627686
2479.889648	3029.244141
2478.945313	3028.750732
2478.001953	2948.775635
2477.058594	3014.519531
2476.114258	2966.354980
2475.169922	3061.203613
2474.226563	2962.741211
2473.282227	2967.553223
2472.336914	3054.414551
2471.392578	3072.441650
2470.447266	2974.041260
2469.502930	2870.381836
2468.557617	3007.458740
2467.612305	2948.786377
2466.666992	2977.392578
2465.721680	2900.237549
2464.775391	3063.653564
2463.829102	2899.292969
2462.883789	2935.815430
2461.937500	2877.211670
2460.991211	3008.824951
2460.043945	3013.617188
2459.097656	3026.330078
2458.150391	3073.363281
2457.204102	2922.387207
2456.256836	2985.258789
2455.309570	3003.245605
2454.362305	2955.260986
2453.414063	2999.628906
2452.466797	2970.124756
2451.518555	2898.432617
2450.570313	3024.531738
2449.622070	2939.671631
2448.673828	2928.648438
2447.725586	2965.069824
2446.776367	2940.869873
2445.828125	3019.433350
2444.878906	3026.844238
2443.929688	3015.815186
2442.980469	2996.889404
2442.030273	3006.933105
2441.081055	3074.890869
2440.130859	2895.401367
2439.181641	2855.453125
2438.231445	3023.392334
2437.281250	2965.019775
2436.331055	2932.970947
2435.379883	2866.741699
2434.429688	2989.866211
2433.478516	2986.749512
2432.527344	2952.088867
2431.576172	2985.775635
2430.625000	2906.452148
2429.673828	2934.880371
2428.721680	2942.282959
2427.770508	2910.283936
2426.818359	2975.463867
2425.866211	2925.089355
2424.914063	2885.232422
2423.960938	3000.257568
2423.008789	2926.283203
2422.055664	2860.204834
2421.103516	2951.564941
2420.150391	2903.866211
2419.197266	2900.769775
2418.243164	2923.897705
2417.290039	3012.565674
2416.335938	2896.729248
2415.382813	2969.646240
2414.428711	2840.751465
2413.474609	2895.312256
2412.520508	2952.474609
2411.565430	3009.618408
2410.611328	3051.030029
2409.656250	2922.226807
2408.701172	3044.798584
2407.746094	2973.625977
2406.791016	2954.820557
2405.835938	2844.433838
2404.879883	2990.485352
2403.923828	2885.360596
2402.968750	2931.968750
2402.013672	3091.009521
2401.056641	2889.177734
2400.099609	2901.777344
2399.144531	3005.855469
2398.187500	2830.269775
2397.230469	2889.905518
2396.273438	2842.408691
2395.316406	2962.100586
2394.359375	2859.762695
2393.402344	2995.079834
2392.443359	2903.212891
2391.486328	3012.375000
2390.529297	2907.485352
2389.570313	2865.258301
2388.613281	2950.891113
2387.654297	2921.713867
2386.695313	2955.144287
2385.736328	2873.819580
2384.777344	2834.239502
2383.818359	2987.588135
2382.859375	3000.133057
2381.900391	2869.337402
2380.941406	2905.348633
2379.982422	2839.742676
2379.021484	2935.658203
2378.062500	3049.773438
2377.101563	2859.183838
2376.142578	2957.652588
2375.181641	2827.012695
2374.220703	2777.099365
2373.259766	3036.875244
2372.298828	2968.730713
2371.337891	2874.594238
2370.376953	2887.129883
2369.416016	2928.267822
2368.455078	2961.591797
2367.492188	2838.920166
2366.531250	2880.045654
2365.568359	2952.344482
2364.607422	2905.089844
2363.644531	2889.027100
2362.681641	2891.152832
2361.718750	2901.069336
2360.757813	2939.547119
2359.794922	2902.718018
2358.830078	2865.901123
2357.867188	2836.882324
2356.904297	2890.915527
2355.941406	2851.523438
2354.976563	2908.130859
2354.013672	2824.653809
2353.048828	2870.873291
2352.085938	2795.208496
2351.121094	2864.750244
2350.156250	2838.361084
2349.191406	2866.406006
2348.226563	2922.945313
2347.261719	2989.829590
2346.296875	2802.831055
2345.332031	2913.742920
2344.367188	2804.504883
2343.400391	2832.527100
2342.435547	2907.137207
2341.468750	2927.368652
2340.503906	2766.441650
2339.537109	2869.487793
2338.570313	2920.759521
2337.603516	2819.404297
2336.636719	2839.633057
2335.669922	2810.725586
2334.703125	2784.412842
2333.736328	2845.995605
2332.769531	2894.635986
2331.800781	2886.410645
2330.833984	2935.028076
2329.865234	2950.047607
2328.898438	2861.750000
2327.929688	2910.347412
2326.962891	2863.396484
2325.994141	2940.374512
2325.025391	2929.569336
2324.056641	2740.699463
2323.087891	2910.549561
2322.119141	2835.257813
2321.148438	2860.588623
2320.179688	2805.961670
2319.210938	2733.302490
2318.240234	2797.309570
2317.271484	2807.163086
2316.300781	2778.353516
2315.330078	2873.244629
2314.359375	2870.198242
2313.390625	2833.664063
2312.419922	2817.746826
2311.449219	2729.728516
2310.476563	2814.250244
2309.505859	2795.769287
2308.535156	2828.773438
2307.564453	2908.090332
2306.591797	2866.444824
2305.621094	2920.002441
2304.648438	2801.200439
2303.675781	2746.733398
2302.703125	2787.427002
2301.732422	2848.675049
2300.759766	2891.908936
2299.787109	2832.322021
2298.814453	2785.603271
2297.839844	2841.672607
2296.867188	2864.327881
2295.894531	2863.859131
2294.919922	2776.076416
2293.947266	2850.083740
2292.972656	2841.915771
2292.000000	2874.819336
2291.025391	2710.100342
2290.050781	2789.201660
2289.076172	2906.760254
2288.101563	2783.158447
2287.126953	2857.079590
2286.152344	2784.812012
2285.175781	2753.589844
2284.201172	2835.169434
2283.226563	2796.260010
2282.250000	2826.553467
2281.275391	2900.394287
2280.298828	2874.301758
2279.322266	2750.886719
2278.345703	2763.240967
2277.371094	2847.285400
2276.394531	2798.177490
2275.417969	2815.637207
2274.439453	2879.157471
2273.462891	2786.568115
2272.486328	2852.630615
2271.507813	2847.047607
2270.531250	2800.545166
2269.552734	2789.857910
2268.576172	2822.638672
2267.597656	2809.395020
2266.619141	2929.062256
2265.640625	2780.364746
2264.662109	2739.028320
2263.683594	2827.992432
2262.705078	2827.529297
2261.726563	2829.619873
2260.748047	2803.622559
2259.767578	2833.799072
2258.789063	2851.202881
2257.808594	2873.705078
2256.830078	2845.165527
2255.849609	2888.071533
2254.869141	2841.682617
2253.888672	2800.409668
2252.908203	2799.950928
2251.927734	2794.393066
2250.947266	2844.919434
2249.966797	2836.807129
2248.986328	2831.245605
2248.003906	2879.192871
2247.023438	2827.770508
2246.041016	2791.647461
2245.060547	2839.577393
2244.078125	2806.010254
2243.095703	2820.825928
2242.115234	2741.454590
2241.132813	2786.815918
2240.150391	2944.125732
2239.166016	2839.331055
2238.183594	2938.073242
2237.201172	2812.966797
2236.218750	2914.223877
2235.234375	2819.672363
2234.251953	2811.583984
2233.267578	2742.497070
2232.283203	2836.075195
2231.300781	2779.711182
2230.316406	2725.906006
2229.332031	2806.740479
2228.347656	2737.710449
2227.363281	2821.055420
2226.378906	2818.054199
2225.392578	2891.205078
2224.408203	2786.674805
2223.423828	2892.794678
2222.437500	2841.577881
2221.451172	2780.231201
2220.466797	2762.021240
2219.480469	2873.146973
2218.494141	2753.509033
2217.507813	2816.433838
2216.521484	2704.448242
2215.535156	2820.578613
2214.548828	2764.372559
2213.562500	2781.652832
2212.574219	2743.202148
2211.587891	2854.184570
2210.599609	2881.569824
2209.613281	2739.321045
2208.625000	2817.342285
2207.636719	2862.436035
2206.650391	2750.625732
2205.662109	2869.087402
2204.673828	2835.731445
2203.685547	2779.623047
2202.695313	2870.204590
2201.707031	2791.353271
2200.718750	2914.766602
2199.728516	2782.854736
2198.740234	2888.538818
2197.750000	2776.888184
2196.761719	2824.432861
2195.771484	2735.562500
2194.781250	2793.200195
2193.791016	2924.046143
2192.800781	2648.377441
2191.810547	2852.407471
2190.820313	2831.748779
2189.830078	2884.275879
2188.837891	2689.530762
2187.847656	2830.354736
2186.857422	2860.156494
2185.865234	2834.469482
2184.873047	2881.909912
2183.882813	2815.892578
2182.890625	2931.374756
2181.898438	2910.732666
2180.906250	2809.466797
2179.914063	2781.293457
2178.921875	2856.403076
2177.927734	2848.378906
2176.935547	2903.308350
2175.943359	2857.514160
2174.949219	2879.700195
2173.955078	2916.979492
2172.962891	2815.844727
2171.968750	2928.601563
2170.974609	2890.387207
2169.980469	2779.245850
2168.986328	2758.671631
2167.992188	2956.850586
2166.998047	2823.127441
2166.003906	2852.825928
2165.007813	2764.399414
2164.013672	2944.858154
2163.019531	2901.666016
2162.023438	2795.691650
2161.027344	2880.621582
2160.033203	2902.747559
2159.037109	2872.143555
2158.041016	2861.630859
2157.044922	2856.141357
2156.048828	2853.162842
2155.052734	2870.256836
2154.054688	2919.956543
2153.058594	2947.066406
2152.062500	2936.551270
2151.064453	2893.444580
2150.066406	2902.996826
2149.070313	2867.428955
2148.072266	2801.799805
2147.074219	2851.452881
2146.076172	2926.142090
2145.078125	2873.059570
2144.080078	2997.809082
2143.082031	3027.364746
2142.083984	2934.233643
2141.083984	2813.597900
2140.085938	2918.252686
2139.085938	2932.787354
2138.087891	2847.238525
2137.087891	2851.773682
2136.087891	2823.792480
2135.089844	2858.338623
2134.089844	2860.369141
2133.089844	2899.897461
2132.087891	2989.402832
2131.087891	2883.949707
2130.087891	2858.489014
2129.087891	2925.472412
2128.085938	2919.995605
2127.085938	2824.612549
2126.083984	3008.928955
2125.082031	2848.650146
2124.082031	2870.647949
2123.080078	2965.016357
2122.078125	2957.042725
2121.076172	2961.546631
2120.074219	2848.803711
2119.070313	2883.253662
2118.068359	3034.898438
2117.066406	2859.865479
2116.062500	2954.126465
2115.060547	2978.565918
2114.056641	2913.281250
2113.054688	2882.901611
2112.050781	2879.936279
2111.046875	2961.661621
2110.042969	2826.688965
2109.039063	2895.945801
2108.035156	2897.959229
2107.031250	2944.778076
2106.025391	2939.316162
2105.021484	2936.344238
2104.015625	2893.564697
2103.011719	2932.890625
2102.005859	2974.690430
2101.000000	2966.740723
2099.996094	2946.361572
2098.990234	2973.222412
2097.984375	2925.507568
2096.978516	2875.322998
2095.972656	2867.395752
2094.964844	2854.502197
2093.958984	2896.259277
2092.953125	2774.090332
2091.945313	2907.721680
2090.939453	3001.585938
2089.931641	2931.587646
2088.923828	2881.467529
2087.916016	2811.511963
2086.908203	2930.140381
2085.900391	2999.116699
2084.892578	2877.090820
2083.884766	2980.770508
2082.876953	3000.115479
2081.869141	3069.034180
2080.859375	2820.667236
2079.851563	2914.375000
2078.841797	3047.696289
2077.833984	2972.872803
2076.824219	2875.781006
2075.814453	2862.924561
2074.804688	3013.499512
2073.794922	2963.488281
2072.785156	2915.968506
2071.775391	2880.839111
2070.763672	2929.855469
2069.753906	2939.269531
2068.744141	2951.154297
2067.732422	2916.041748
2066.720703	2903.197021
2065.710938	2937.333984
2064.699219	2988.764160
2063.687500	2941.309814
2062.675781	2851.859131
2061.664063	2878.569092
2060.652344	3009.029785
2059.640625	2887.501221
2058.628906	2889.495117
2057.615234	3027.297119
2056.603516	2824.353516
2055.589844	2893.004395
2054.578125	2909.803955
2053.564453	2830.360596
2052.550781	2898.976318
2051.537109	2945.368164
2050.523438	3016.408447
2049.509766	2927.135498
2048.496094	2899.531738
2047.482422	2945.892578
2046.466797	2910.900146
2045.453125	2930.135498
2044.439453	2907.477051
2043.423828	2936.560547
2042.408203	2916.371338
2041.394531	2967.608398
2040.378906	2952.345215
2039.363281	2912.467773
2038.347656	2921.833740
2037.332031	2886.896484
2036.316406	2947.938477
2035.298828	2888.405029
2034.283203	2988.785156
2033.265625	2953.859375
2032.250000	2963.208740
2031.232422	2913.546631
2030.216797	3021.230713
2029.199219	2917.501709
2028.181641	2934.223145
2027.164063	2933.739258
2026.146484	2957.822266
2025.128906	3067.865967
2024.111328	2905.273926
2023.091797	2990.735596
2022.074219	2874.855225
2021.056641	2940.656494
2020.037109	2991.710449
2019.017578	3010.847656
2018.000000	2843.518311
2016.980469	2943.623047
2015.960938	2943.137695
2014.941406	2847.015869
2013.921875	2988.751221
2012.902344	2980.903809
2011.882813	2823.548340
2010.861328	3014.228760
2009.841797	2962.277588
2008.820313	2932.391602
2007.800781	2885.369629
2006.779297	2897.138428
2005.757813	2808.511963
2004.738281	2910.871582
2003.716797	2952.003418
2002.695313	2905.016357
2001.671875	2906.984131
2000.650391	2962.775146
1999.628906	2923.147705
1998.607422	2890.870605
1997.583984	2804.806641
1996.562500	2907.031250
1995.539063	2872.327881
1994.515625	2862.077393
1993.494141	2912.923340
1992.470703	2785.389648
1991.447266	2907.075928
1990.423828	2882.170898
1989.400391	2911.000732
1988.375000	2893.428223
1987.351563	2805.063477
1986.328125	2785.072998
1985.302734	2870.031006
1984.279297	2913.479004
1983.253906	2834.927734
1982.228516	2902.759766
1981.203125	2833.991699
1980.177734	2896.924316
1979.152344	2835.493896
1978.126953	2813.086670
1977.101563	2836.994873
1976.076172	2773.167480
1975.050781	2899.406250
1974.023438	2886.747070
1972.998047	2749.872803
1971.970703	2927.193359
1970.943359	2887.751953
1969.917969	2765.551758
1968.890625	2855.155518
1967.863281	2715.965088
1966.835938	2783.647705
1965.808594	2749.127930
1964.779297	2777.863281
1963.751953	2750.651855
1962.724609	2774.513916
1961.695313	2861.580566
1960.667969	2861.107910
1959.638672	2935.979004
1958.609375	2857.732422
1957.580078	2847.541748
1956.550781	2953.958008
1955.521484	2819.883545
1954.492188	2904.413086
1953.462891	2816.523682
1952.433594	2910.736084
1951.404297	2776.757080
1950.373047	2841.822754
1949.343750	2700.620117
1948.312500	2765.676514
1947.281250	2784.624512
1946.250000	2825.393311
1945.220703	2810.377197
1944.189453	2865.674561
1943.158203	2804.600098
1942.125000	2772.629395
1941.093750	2861.830566
1940.062500	2725.679199
1939.031250	2848.772217
1937.998047	2729.622070
1936.964844	2850.251953
1935.933594	2895.783936
1934.900391	2754.897461
1933.867188	2819.793457
1932.833984	2874.987793
1931.800781	2818.861084
1930.767578	2903.067627
1929.734375	2856.629883
1928.701172	2831.973389
1927.666016	2858.103271
1926.632813	2702.902588
1925.597656	2801.561768
1924.564453	2793.848145
1923.529297	2824.799561
1922.494141	2916.141113
1921.458984	2717.577637
1920.423828	2772.678223
1919.388672	2784.293701
1918.353516	2890.067871
1917.318359	2826.825195
1916.283203	2944.625244
1915.246094	2903.113281
1914.210938	2847.137939
1913.173828	2890.090576
1912.138672	2699.062012
1911.101563	2879.487793
1910.064453	2797.029297
1909.027344	2844.783203
1907.990234	2899.752441
1906.953125	2908.912842
1905.916016	2826.503662
1904.876953	2898.312988
1903.839844	2871.336182
1902.802734	2923.846680
1901.763672	2863.161865
1900.724609	2908.433105
1899.687500	2854.992188
1898.648438	2931.538818
1897.609375	2911.802002
1896.570313	2841.544678
1895.531250	2797.772461
1894.492188	2787.688232
1893.451172	2890.635498
1892.412109	2822.832275
1891.373047	2839.193359
1890.332031	2833.916016
1889.291016	2831.043457
1888.251953	2736.863037
1887.210938	2904.582520
1886.169922	2796.008301
1885.128906	2831.570557
1884.087891	2891.133301
1883.046875	2782.615234
1882.005859	2842.166260
1880.962891	2959.299561
1879.921875	2910.815918
1878.880859	2975.114502
1877.837891	2943.436279
1876.794922	2878.189453
1875.753906	2942.461182
1874.710938	2824.486572
1873.667969	2905.526855
1872.625000	2789.994385
1871.582031	2811.100586
1870.537109	2709.998535
1869.494141	2805.377930
1868.451172	2852.819336
1867.406250	2833.187500
1866.363281	2859.057617
1865.318359	2884.919434
1864.273438	2774.329834
1863.230469	2879.176758
1862.185547	2773.410400
1861.140625	2787.306152
1860.095703	2801.197021
1859.048828	2853.351318
1858.003906	2857.661133
1856.958984	2773.504150
1855.912109	2741.967285
1854.867188	2760.634033
1853.820313	2862.936279
1852.773438	2800.338135
1851.728516	2821.374756
1850.681641	2780.301270
1849.634766	2815.663086
1848.587891	2860.564209
1847.541016	2845.765625
1846.492188	2749.813965
1845.445313	2804.249756
1844.398438	2770.378174
1843.349609	2843.878662
1842.302734	2781.386475
1841.253906	2759.460205
1840.205078	2744.694824
1839.156250	2799.076904
1838.107422	2824.834717
1837.058594	2881.568604
1836.009766	2811.982666
1834.960938	2759.098389
1833.912109	2789.609863
1832.861328	2715.309814
1831.812500	2793.447510
1830.761719	2762.030273
1829.710938	2785.378906
1828.662109	2768.254883
1827.611328	2746.376709
1826.560547	2786.372314
1825.509766	2735.949219
1824.458984	2790.205322
1823.408203	2685.097412
1822.355469	2734.587646
1821.304688	2822.101807
1820.251953	2852.536133
1819.201172	2730.850098
1818.148438	2846.836670
1817.095703	2767.958740
1816.044922	2829.263184
1814.992188	2850.169922
1813.939453	2757.081787
1812.886719	2870.593262
1811.832031	2777.532471
1810.779297	2753.335693
1809.726563	2719.654297
1808.671875	2761.912842
1807.619141	2808.902100
1806.564453	2822.667725
1805.509766	2812.712891
1804.457031	2760.079346
1803.402344	2743.025635
1802.347656	2744.940674
1801.292969	2791.885254
1800.238281	2777.203857
1799.181641	2876.250732
1798.126953	2771.544189
1797.070313	2801.873779
1796.015625	2796.672363
1794.958984	2843.561035
1793.904297	2750.765381
1792.847656	2766.876709
1791.791016	2764.050781
1790.734375	2773.056152
1789.677734	2874.320557
1788.621094	2835.998291
1787.562500	2868.635986
1786.505859	2771.214111
1785.449219	2737.656006
1784.390625	2782.112305
1783.333984	2703.659912
1782.275391	2776.462158
1781.216797	2785.450928
1780.158203	2822.782959
1779.099609	2751.460693
1778.041016	2727.389893
1776.982422	2807.210205
1775.923828	2731.204834
1774.865234	2733.111084
1773.804688	2775.133545
1772.746094	2788.828857
1771.685547	2863.854248
1770.625000	2849.226318
1769.566406	2782.722168
1768.505859	2789.333252
1767.445313	2793.584473
1766.384766	2804.905518
1765.322266	2747.879150
1764.261719	2785.123047
1763.201172	2860.048340
1762.140625	2751.220215
1761.078125	2722.501465
1760.015625	2875.105225
1758.955078	2848.729736
1757.892578	2763.514648
1756.830078	2720.691406
1755.767578	2764.948975
1754.705078	2839.777344
1753.642578	2827.543457
1752.580078	2737.698242
1751.515625	2737.242920
1750.453125	2734.436523
1749.390625	2783.348633
1748.326172	2916.859131
1747.261719	2841.173340
1746.199219	2734.967529
1745.134766	2786.195801
1744.070313	2816.267578
1743.005859	2785.269043
1741.941406	2761.325195
1740.875000	2831.296143
1739.810547	2772.143066
1738.746094	2872.598145
1737.679688	2858.041260
1736.615234	2801.259033
1735.548828	2824.250244
1734.482422	2807.363037
1733.416016	2839.725098
1732.349609	2855.664551
1731.283203	2719.228027
1730.216797	2885.183350
1729.150391	2865.956055
1728.083984	2842.049316
1727.015625	2787.696533
1725.949219	2834.076660
1724.880859	2789.110352
1723.812500	2748.841797
1722.746094	2774.135742
1721.677734	2874.322021
1720.609375	2808.316406
1719.541016	2754.031738
1718.472656	2922.016113
1717.404297	2921.529785
1716.333984	2804.108154
1715.265625	2878.467285
1714.195313	2863.960449
1713.126953	2830.758301
1712.056641	2804.578125
1710.986328	2813.458252
1709.916016	2838.689941
1708.845703	2812.521484
1707.775391	2751.327637
1706.705078	2795.238281
1705.634766	2813.451416
1704.564453	2808.313965
1703.492188	2770.501709
1702.421875	2795.710449
1701.349609	2830.243652
1700.279297	2769.117432
1699.207031	2920.267578
1698.134766	2786.851807
1697.062500	2833.021729
1695.990234	2809.236572
1694.917969	2813.430420
1693.845703	2784.995361
1692.771484	2828.804199
1691.699219	2837.651855
1690.625000	2818.544189
1689.552734	2841.364258
1688.478516	2871.162598
1687.404297	2886.981689
1686.330078	2818.993652
1685.255859	2746.373535
1684.181641	2778.494385
1683.107422	2961.837402
1682.033203	2824.093750
1680.958984	2784.083252
1679.882813	2806.874023
1678.808594	2871.509277
1677.732422	2964.019531
1676.656250	2812.443604
1675.582031	2844.510010
1674.505859	2869.594971
1673.429688	2773.866699
1672.353516	2805.923096
1671.277344	2817.067383
1670.199219	2865.359863
1669.123047	2864.882080
1668.046875	2811.016113
1666.968750	2840.718262
1665.890625	2798.476318
1664.814453	2865.291748
1663.736328	2825.379395
1662.658203	2764.606445
1661.580078	2801.247803
1660.501953	2849.469727
1659.423828	2846.676514
1658.345703	2802.164307
1657.265625	2820.235840
1656.187500	2824.399414
1655.107422	2747.480713
1654.029297	2721.543945
1652.949219	2730.353271
1651.869141	2801.676270
1650.789063	2706.291748
1649.708984	2703.525635
1648.628906	2809.531250
1647.548828	2816.004150
1646.468750	2820.161377
1645.386719	2798.872803
1644.306641	2786.842041
1643.224609	2763.253418
1642.144531	2834.463135
1641.062500	2725.346191
1639.980469	2715.646484
1638.898438	2766.031006
1637.816406	2719.360840
1636.734375	2721.217041
1635.652344	2725.382080
1634.570313	2812.679199
1633.486328	2715.236816
1632.404297	2714.783691
1631.320313	2735.103271
1630.236328	2787.724365
1629.154297	2690.350830
1628.070313	2678.366943
1626.986328	2664.080322
1625.902344	2788.169189
1624.818359	2792.315186
1623.734375	2681.189453
1622.648438	2742.977295
1621.564453	2721.777588
1620.478516	2742.061279
1619.394531	2755.426514
1618.308594	2706.593262
1617.222656	2782.143311
1616.136719	2744.835205
1615.050781	2677.609131
1613.964844	2626.519287
1612.878906	2679.016357
1611.792969	2706.182861
1610.707031	2639.007813
1609.619141	2654.669922
1608.533203	2730.127197
1607.445313	2713.573486
1606.357422	2788.995605
1605.271484	2703.471436
1604.183594	2627.169678
1603.095703	2695.673584
1602.007813	2658.459717
1600.919922	2648.826172
1599.830078	2662.165283
1598.742188	2618.085693
1597.652344	2714.087646
1596.564453	2713.634033
1595.474609	2690.226318
1594.386719	2692.071777
1593.296875	2748.988037
1592.207031	2787.531006
1591.117188	2667.783203
1590.027344	2621.467285
1588.937500	2774.667725
1587.845703	2730.641846
1586.755859	2677.461426
1585.664063	2587.627197
1584.574219	2717.814697
1583.482422	2770.057861
1582.390625	2742.104736
1581.300781	2725.613281
1580.208984	2709.127197
1579.117188	2759.046875
1578.025391	2751.717529
1576.931641	2728.368408
1575.839844	2631.794434
1574.748047	2793.811768
1573.654297	2733.862793
1572.560547	2824.900391
1571.468750	2744.383301
1570.375000	2666.179688
1569.281250	2748.037598
1568.187500	2722.433838
1567.093750	2788.256592
1566.000000	2703.242188
1564.906250	2737.060303
1563.810547	2784.572998
1562.716797	2720.156982
1561.621094	2779.074219
1560.527344	2712.397461
1559.431641	2837.496338
1558.335938	2862.127930
1557.240234	2806.880615
1556.144531	2836.072021
1555.048828	2862.972412
1553.953125	2898.987305
1552.857422	2697.819092
1551.759766	2731.569092
1550.664063	2835.979248
1549.566406	2805.873047
1548.470703	2796.287354
1547.373047	2802.655029
1546.275391	2704.223389
1545.177734	2803.994629
1544.080078	2824.021973
1542.982422	2752.960449
1541.884766	2770.712891
1540.785156	2836.261475
1539.687500	2803.923828
1538.587891	2792.076660
1537.490234	2800.709717
1536.390625	2738.822021
1535.291016	2804.320557
1534.193359	2737.904785
1533.093750	2773.824219
1531.992188	2714.255127
1530.892578	2831.989502
1529.792969	2754.250732
1528.693359	2746.972900
1527.591797	2814.664551
1526.492188	2780.122803
1525.390625	2736.508789
1524.289063	2781.462158
1523.189453	2731.051514
1522.087891	2685.197754
1520.986328	2732.406006
1519.882813	2752.369629
1518.781250	2715.609619
1517.679688	2710.617920
1516.578125	2780.469238
1515.474609	2723.314697
1514.371094	2822.613281
1513.269531	2742.802979
1512.166016	2762.740967
1511.062500	2707.893555
1509.958984	2718.767822
1508.855469	2756.821533
1507.751953	2790.332520
1506.648438	2753.632813
1505.542969	2757.699463
1504.439453	2802.511963
1503.333984	2738.667969
1502.230469	2672.582275
1501.125000	2746.800049
1500.019531	2624.179443
1498.914063	2702.904053
1497.808594	2643.652588
1496.703125	2708.780762
1495.597656	2687.980225
1494.492188	2705.612061
1493.384766	2752.617188
1492.279297	2589.466553
1491.171875	2740.398193
1490.066406	2744.456055
1488.958984	2692.051758
1487.851563	2666.761719
1486.744141	2679.860352
1485.636719	2661.352539
1484.529297	2530.004639
1483.421875	2644.663818
1482.312500	2664.525635
1481.205078	2697.915283
1480.095703	2683.930176
1478.988281	2629.359131
1477.878906	2635.681885
1476.769531	2630.731201
1475.660156	2711.429688
1474.550781	2722.242188
1473.441406	2627.153809
1472.332031	2770.889404
1471.222656	2635.281494
1470.111328	2731.675293
1469.001953	2728.965088
1467.890625	2629.452393
1466.781250	2669.526611
1465.669922	2711.837646
1464.558594	2648.379395
1463.447266	2728.925293
1462.335938	2676.731934
1461.224609	2719.012939
1460.113281	2709.562256
1459.000000	2677.632080
1457.888672	2726.635010
1456.775391	2681.227783
1455.664063	2703.248535
1454.550781	2707.288086
1453.437500	2738.281982
1452.324219	2652.475830
1451.210938	2773.291748
1450.097656	2750.373779
1448.984375	2738.687744
1447.871094	2646.205322
1446.755859	2719.815186
1445.642578	2775.450684
1444.527344	2790.687744
1443.412109	2743.117188
1442.298828	2704.532715
1441.183594	2724.258057
1440.068359	2732.767578
1438.953125	2716.618408
1437.837891	2711.679932
1436.720703	2684.335938
1435.605469	2688.365723
1434.490234	2804.390137
1433.373047	2738.971924
1432.255859	2722.837402
1431.140625	2635.066650
1430.023438	2724.160645
1428.906250	2656.561279
1427.789063	2685.204590
1426.671875	2702.651611
1425.554688	2742.461670
1424.435547	2717.398926
1423.318359	2763.901367
1422.199219	2709.777832
1421.082031	2698.145264
1419.962891	2702.161621
1418.843750	2717.350098
1417.724609	2687.847412
1416.605469	2718.670166
1415.486328	2733.847900
1414.367188	2753.486572
1413.248047	2616.823730
1412.126953	2723.539307
1411.007813	2582.463135
1409.886719	2677.989990
1408.767578	2652.995605
1407.646484	2634.702148
1406.525391	2703.405273
1405.404297	2651.656982
1404.283203	2751.551270
1403.162109	2733.252930
1402.041016	2732.793213
1400.917969	2676.616943
1399.796875	2740.786865
1398.673828	2724.730469
1397.552734	2617.350342
1396.429688	2639.181641
1395.306641	2587.521484
1394.183594	2640.520020
1393.060547	2660.109863
1391.937500	2695.272705
1390.814453	2677.016846
1389.691406	2669.891602
1388.566406	2644.972412
1387.443359	2600.043945
1386.318359	2604.053955
1385.195313	2648.083740
1384.070313	2552.047363
1382.945313	2602.739014
1381.820313	2591.189453
1380.695313	2675.186035
1379.570313	2599.203369
1378.443359	2638.746582
1377.318359	2607.211182
1376.193359	2662.282715
1375.066406	2695.135254
1373.939453	2659.166504
1372.814453	2656.499512
1371.687500	2600.579102
1370.560547	2628.982178
1369.433594	2664.030273
1368.306641	2625.878906
1367.177734	2774.004395
1366.050781	2667.118652
1364.923828	2711.002930
1363.794922	2646.273193
1362.666016	2608.156494
1361.539063	2654.244141
1360.410156	2642.720947
1359.281250	2715.364746
1358.152344	2690.548340
1357.023438	2636.957275
1355.892578	2656.436279
1354.763672	2625.002197
1353.634766	2726.355469
1352.503906	2639.605469
1351.375000	2712.163574
1350.244141	2674.105225
1349.113281	2700.192139
1347.982422	2657.726318
1346.851563	2628.539063
1345.720703	2676.723633
1344.589844	2749.201416
1343.458984	2658.144531
1342.326172	2794.668213
1341.195313	2708.052002
1340.062500	2689.927490
1338.931641	2751.301025
1337.798828	2735.383057
1336.666016	2726.092285
1335.533203	2765.358643
1334.400391	2689.867188
1333.267578	2744.569824
1332.132813	2609.548828
1331.000000	2655.424072
1329.867188	2732.156006
1328.732422	2705.238037
1327.597656	2733.438721
1326.464844	2779.261963
1325.330078	2743.534912
1324.195313	2652.738037
1323.060547	2636.870361
1321.925781	2592.375000
1320.789063	2721.864746
1319.654297	2756.634277
1318.517578	2751.766357
1317.382813	2641.250000
1316.246094	2735.433105
1315.111328	2684.364746
1313.974609	2593.714600
1312.837891	2709.853516
1311.701172	2751.180664
1310.564453	2662.763916
1309.425781	2598.559570
1308.289063	2694.836182
1307.152344	2650.427490
1306.013672	2737.873291
1304.875000	2796.729004
1303.738281	2668.854736
1302.599609	2677.189209
1301.460938	2687.716553
1300.322266	2597.248291
1299.183594	2680.223633
1298.044922	2666.602783
1296.904297	2661.763916
1295.765625	2650.344482
1294.625000	2700.350342
1293.486328	2515.661133
1292.345703	2659.966553
1291.205078	2683.635010
1290.064453	2674.413086
1288.923828	2654.235596
1287.783203	2680.083984
1286.642578	2745.362305
1285.501953	2571.836426
1284.359375	2558.260254
1283.218750	2739.591553
1282.076172	2636.219971
1280.935547	2624.828613
1279.792969	2630.951660
1278.650391	2623.941895
1277.507813	2680.388428
1276.365234	2557.424072
1275.222656	2631.361328
1274.078125	2600.299316
1272.935547	2602.046387
1271.792969	2634.400146
1270.648438	2559.635742
1269.503906	2629.138672
1268.359375	2595.917725
1267.216797	2663.206055
1266.072266	2680.230957
1264.927734	2644.833740
1263.781250	2637.835938
1262.636719	2589.357910
1261.492188	2658.773193
1260.345703	2656.141113
1259.201172	2681.877930
1258.054688	2642.152344
1256.908203	2646.068359
1255.761719	2687.061035
1254.615234	2677.884033
1253.468750	2651.267334
1252.322266	2742.376953
1251.175781	2626.395264
1250.029297	2636.847168
1248.880859	2621.149414
1247.732422	2631.598389
1246.585938	2607.194336
1245.437500	2621.997314
1244.289063	2691.229736
1243.140625	2699.482422
1241.992188	2712.085693
1240.843750	2724.684570
1239.695313	2641.539307
1238.544922	2669.374268
1237.396484	2684.148926
1236.246094	2798.958740
1235.097656	2718.031494
1233.947266	2652.349854
1232.796875	2767.106445
1231.646484	2701.438721
1230.496094	2692.289551
1229.345703	2746.148682
1228.195313	2691.378418
1227.042969	2662.688965
1225.892578	2740.411621
1224.740234	2722.578857
1223.589844	2713.435059
1222.437500	2654.375244
1221.285156	2755.916504
1220.132813	2751.110840
1218.980469	2718.105957
1217.828125	2706.801025
1216.675781	2691.163086
1215.521484	2742.743652
1214.369141	2770.460693
1213.214844	2678.958984
1212.062500	2780.357910
1210.908203	2723.552490
1209.753906	2686.263428
1208.599609	2748.621826
1207.445313	2717.837891
1206.291016	2840.796143
1205.134766	2788.358154
1203.980469	2792.214844
1202.826172	2763.607910
1201.669922	2765.303467
1200.513672	2751.854736
1199.359375	2753.551514
1198.203125	2744.434326
1197.046875	2709.372314
1195.890625	2810.524658
1194.734375	2807.886719
1193.576172	2850.635254
1192.419922	2737.788330
1191.263672	2825.903809
1190.105469	2829.745117
1188.947266	2732.077148
1187.791016	2848.220459
1186.632813	2849.896729
1185.474609	2773.861084
1184.316406	2853.247314
1183.156250	2781.552490
1181.998047	2787.553467
1180.839844	2756.880371
1179.679688	2849.156250
1178.521484	2809.856934
1177.361328	2785.663574
1176.201172	2744.232666
1175.042969	2817.049316
1173.882813	2825.191650
1172.720703	2874.269043
1171.560547	2791.919678
1170.400391	2802.215576
1169.240234	2775.898193
1168.078125	2814.184326
1166.917969	2856.762939
1165.755859	2813.229736
1164.593750	2819.208740
1163.431641	2878.978027
1162.269531	2848.371094
1161.107422	2832.831055
1159.945313	2957.085693
1158.783203	2917.879639
1157.619141	2902.335449
1156.457031	2878.198242
1155.292969	2918.543701
1154.130859	2877.221680
1152.966797	2932.592285
1151.802734	2863.356934
1150.638672	2899.381592
1149.474609	3027.729004
1148.310547	2915.573242
1147.144531	2927.958008
1145.980469	2959.654541
1144.814453	3002.069580
1143.650391	3007.996338
1142.484375	2988.179443
1141.318359	3002.685791
1140.154297	3012.897949
1138.988281	3076.707764
1137.820313	2934.702393
1136.654297	3144.249268
1135.488281	3034.424805
1134.320313	3068.190918
1133.154297	3031.252197
1131.986328	3219.221436
1130.820313	3186.552246
1129.652344	3194.575439
1128.484375	3101.979736
1127.316406	3124.997314
1126.148438	3229.328857
1124.980469	3126.075439
1123.810547	3200.420654
1122.642578	3176.348389
1121.472656	3222.857910
1120.304688	3170.992920
1119.134766	3255.968750
1117.964844	3340.915527
1116.794922	3227.079590
1115.625000	3373.968750
1114.455078	3332.803711
1113.285156	3439.039795
1112.113281	3408.555664
1110.943359	3358.864014
1109.771484	3439.421631
1108.601563	3332.107178
1107.429688	3293.124512
1106.257813	3320.305176
1105.085938	3452.018311
1103.914063	3374.638184
1102.742188	3388.994141
1101.570313	3512.098389
1100.396484	3515.765381
1099.224609	3440.558350
1098.050781	3601.954834
1096.878906	3522.496338
1095.705078	3515.505615
1094.531250	3529.819580
1093.357422	3616.544434
1092.183594	3703.239990
1091.009766	3555.697998
1089.835938	3687.078857
1088.660156	3628.983887
1087.486328	3768.819580
1086.310547	3638.387939
1085.134766	3720.735840
1083.960938	3803.055420
1082.785156	3723.723389
1081.609375	3742.226074
1080.433594	3758.596680
1079.257813	3798.342529
1078.080078	3787.070313
1076.904297	3896.916504
1075.726563	3932.369141
1074.550781	3870.101318
1073.373047	3937.402100
1072.195313	3964.335938
1071.017578	3965.784180
1069.839844	3969.354492
1068.662109	3966.556641
1067.484375	4133.513672
1066.306641	3969.449707
1065.126953	4132.106445
1063.949219	4082.623779
1062.769531	4067.085449
1061.589844	4091.834473
1060.410156	4169.568848
1059.230469	4141.306641
1058.050781	4166.030273
1056.871094	4231.000000
1055.691406	4281.119141
1054.511719	4288.861816
1053.330078	4201.310059
1052.150391	4261.994141
1050.968750	4261.268555
1049.787109	4360.019043
1048.605469	4384.669922
1047.423828	4307.754883
1046.242188	4402.215332
1045.060547	4505.104004
1043.878906	4506.451172
1042.695313	4469.739746
1041.513672	4576.791504
1040.330078	4550.648438
1039.148438	4535.080078
1037.964844	4568.113770
1036.781250	4575.785645
1035.597656	4682.727539
1034.414063	4512.983398
1033.230469	4518.548340
1032.044922	4595.889648
1030.861328	4763.966309
1029.675781	4744.160645
1028.492188	4713.812012
1027.306641	4596.976074
1026.121094	4705.876953
1024.935547	4730.382324
1023.750000	4775.964844
1022.564453	4802.557617
1021.378906	4789.091797
1020.191406	4815.672852
1019.005859	4907.566406
1017.818359	4845.632813
1016.632813	4842.699707
1015.445313	4909.268555
1014.257813	4908.431152
1013.070313	4903.383789
1011.882813	4940.437500
1010.695313	4884.874023
1009.507813	4898.770996
1008.318359	5022.066895
1007.130859	5021.209961
1005.941406	5058.211426
1004.751953	4920.663086
1003.564453	5104.842773
1002.375000	4923.188477
1001.185547	5014.826660
999.996094	5020.275391
998.804688	5074.045898
997.615234	5056.374512
996.425781	5139.525391
995.234375	4899.250488
994.042969	5049.587402
992.853516	5031.931152
991.662109	4854.764648
990.470703	5133.042480
989.279297	5031.453125
988.087891	5034.790039
986.894531	4924.862305
985.703125	4886.273438
984.511719	4977.696289
983.318359	5077.473633
982.125000	4869.099121
980.933594	4924.851074
979.740234	4968.011719
978.546875	4956.688477
977.353516	5117.126953
976.158203	4961.278809
974.964844	4935.304688
973.771484	5095.664063
972.576172	4933.619141
971.382813	4943.240723
970.187500	4959.135742
968.992188	4939.459961
967.796875	4905.147949
966.601563	4918.949707
965.406250	4930.655762
964.210938	4998.805664
963.013672	4887.164551
961.818359	4915.589355
960.621094	4992.064453
959.425781	4924.355957
958.228516	4956.936523
957.031250	4956.089355
955.833984	4942.713379
954.636719	4852.092285
953.439453	4922.236816
952.242188	4908.873047
951.042969	4887.166504
949.845703	4809.134766
948.646484	4960.593262
947.447266	4966.001953
946.250000	4960.982422
945.050781	4841.291504
943.851563	4909.255859
942.650391	4975.112305
941.451172	4861.731445
940.251953	4869.234375
939.050781	4995.475586
937.851563	4942.550781
936.650391	4889.643555
935.449219	4855.493652
934.250000	4796.374023
933.048828	4837.181641
931.847656	4979.946777
930.644531	5001.982422
929.443359	4840.940918
928.242188	4752.753418
927.039063	4847.603516
925.837891	4809.347168
924.634766	4766.945801
923.431641	4770.287598
922.228516	4798.565918
921.025391	4781.122070
919.822266	4807.311523
918.619141	4781.563477
917.414063	4884.583984
916.210938	4730.092773
915.005859	4714.750488
913.802734	4769.987793
912.597656	4837.658203
911.392578	4757.979980
910.187500	4765.464355
908.982422	4756.351074
907.777344	4701.614746
906.572266	4628.234375
905.365234	4731.103516
904.160156	4680.544434
902.953125	4636.220215
901.746094	4652.003418
900.541016	4624.273438
899.333984	4770.554688
898.126953	4628.902832
896.919922	4541.139160
895.710938	4604.543457
894.503906	4583.054199
893.296875	4584.338867
892.087891	4558.721680
890.878906	4545.527344
889.671875	4627.493164
888.462891	4560.516113
887.253906	4472.882324
886.044922	4463.846191
884.833984	4394.863770
883.625000	4462.316406
882.416016	4380.958496
881.205078	4376.075684
879.996094	4404.246582
878.785156	4364.249023
877.574219	4363.500977
876.363281	4315.264648
875.152344	4341.361816
873.941406	4262.185059
872.730469	4242.881348
871.517578	4254.534180
870.306641	4385.833496
869.093750	4255.138184
867.880859	4167.794434
866.669922	4245.431641
865.457031	4195.226563
864.244141	4066.714111
863.031250	4173.179688
861.816406	4296.092773
860.603516	4188.229492
859.390625	4201.929688
858.175781	4238.278809
856.962891	4161.366211
855.748047	4070.069336
854.533203	4256.681641
853.318359	4144.819336
852.103516	4074.148193
850.888672	4100.194336
849.671875	4025.440918
848.457031	3998.014404
847.242188	4087.802979
846.025391	4082.989990
844.808594	4086.400391
843.591797	4065.147461
842.376953	3996.640381
841.158203	4092.514893
839.941406	3933.645020
838.724609	4050.034912
837.507813	3993.897461
836.289063	4040.432373
835.072266	4004.842773
833.853516	3995.946045
832.634766	4023.988037
831.416016	4088.950195
830.197266	4022.606445
828.978516	4048.578369
827.759766	3955.606201
826.541016	3954.927002
825.320313	3997.295654
824.101563	3986.361572
822.880859	4030.759277
821.660156	3933.771484
820.441406	3996.599121
819.220703	4002.057129
818.000000	4032.086426
816.777344	3881.931396
815.556641	4081.878418
814.335938	4046.382813
813.113281	3933.136963
811.892578	4010.210205
810.669922	4011.566895
809.447266	3906.566406
808.224609	4046.998047
807.001953	4062.659668
805.779297	3994.500732
804.556641	4040.824463
803.332031	3958.387451
802.109375	3994.484863
800.884766	4034.655762
799.662109	4091.152588
798.437500	3988.341309
797.212891	3993.781250
795.988281	4042.089844
794.763672	4141.409180
793.539063	3999.885010
792.312500	4042.045898
791.087891	4116.833008
789.861328	4140.601563
788.636719	4005.292236
787.410156	4055.578613
786.183594	4052.842773
784.957031	3929.847656
783.730469	4041.259033
782.503906	4044.639404
781.277344	4107.098633
780.048828	4026.952881
778.822266	3993.675537
777.593750	3992.988525
776.365234	4094.094238
775.136719	4054.715332
773.908203	3984.822754
772.679688	4104.190430
771.451172	4083.139648
770.222656	4037.687012
768.994141	4169.186035
767.763672	4054.598145
766.535156	4181.982422
765.304688	4209.720703
764.074219	4082.990479
762.843750	4066.031738
761.613281	4075.490234
760.382813	4003.693359
759.152344	4143.139648
757.919922	4087.600342
756.689453	4155.925293
755.457031	4171.448730
754.226563	4036.780273
752.994141	3999.559570
751.761719	4226.102539
750.529297	4115.835938
749.296875	4015.747559
748.064453	4138.751953
746.830078	4054.913574
745.597656	4066.377930
744.363281	4112.292969
743.130859	4202.773438
741.896484	4064.277344
740.662109	4039.268799
739.427734	4147.942383
738.193359	4043.952393
736.958984	4166.760254
735.722656	4087.093994
734.488281	4104.605469
733.251953	4156.512695
732.017578	4242.796875
730.781250	4215.768066
729.544922	4202.905762
728.308594	4131.403809
727.072266	4314.682617
725.835938	4097.635742
724.599609	4155.543457
723.361328	4187.160645
722.125000	4214.725586
720.886719	4218.039551
719.648438	4207.213379
718.412109	4133.788574
717.173828	4163.361816
715.935547	4174.756836
714.695313	4216.423340
713.457031	4179.371582
712.218750	4204.880859
710.978516	4111.357910
709.740234	4169.141602
708.500000	4134.139648
707.259766	4179.801758
706.019531	4201.256348
704.779297	4216.656738
703.539063	4211.898926
702.298828	4223.261719
701.056641	4200.373047
699.816406	4229.861816
698.574219	4156.632813
697.333984	4234.442871
696.091797	4219.620117
694.849609	4180.648438
693.607422	4353.000488
692.365234	4255.666992
691.121094	4216.708496
689.878906	4213.969238
688.636719	4309.774902
687.392578	4220.558105
686.148438	4239.933594
684.904297	4112.568359
683.662109	4184.208008
682.417969	4330.168945
681.171875	4247.051758
679.927734	4230.249512
678.683594	4221.485840
677.437500	4345.251465
676.193359	4344.500977
674.947266	4395.939941
673.701172	4308.882813
672.455078	4298.105957
671.208984	4317.426270
669.962891	4342.757324
668.716797	4434.262207
667.470703	4257.039063
666.222656	4388.624023
664.976563	4263.586426
663.728516	4304.937500
662.480469	4330.243164
661.232422	4285.418945
659.984375	4324.740723
658.736328	4356.038086
657.488281	4279.193359
656.240234	4280.456055
654.990234	4295.729980
653.742188	4335.015625
652.492188	4244.219238
651.242188	4209.474121
649.992188	4122.731445
648.742188	4260.019531
647.492188	4277.280273
646.242188	4324.524414
644.992188	4213.833496
643.740234	4223.098145
642.490234	4204.383301
641.238281	4171.689453
639.986328	4260.859863
638.734375	4377.960938
637.482422	4159.541504
636.230469	4254.657227
634.978516	4267.895020
633.726563	4245.202148
632.472656	4236.485840
631.220703	4247.724121
629.966797	4274.917480
628.712891	4290.133789
627.458984	4259.479492
626.205078	4254.755371
624.951172	4214.150391
623.697266	4333.007324
622.443359	4344.214355
621.187500	4351.432617
619.933594	4388.528809
618.677734	4250.340332
617.421875	4319.303223
616.167969	4406.161621
614.912109	4317.808594
613.654297	4352.887695
612.398438	4266.563965
611.142578	4373.267090
609.884766	4422.243164
608.628906	4441.367188
607.371094	4374.974121
606.113281	4499.478027
604.857422	4548.397949
603.599609	4507.858398
602.339844	4544.835938
601.082031	4518.219238
599.824219	4485.651855
598.564453	4615.965332
597.306641	4601.264648
596.046875	4725.556152
594.787109	4700.915527
593.529297	4563.147461
592.269531	4653.644043
591.007813	4605.218262
589.748047	4771.060547
588.488281	4696.846191
587.226563	4749.576660
585.966797	4828.064941
584.705078	4793.527344
583.443359	4774.857910
582.183594	4758.176270
580.921875	4812.831543
579.658203	4748.603516
578.396484	4759.665039
577.134766	4784.584961
575.871094	4884.737305
574.609375	4838.357910
573.345703	4841.478027
572.082031	4808.974609
570.818359	4948.625977
569.554688	4817.199219
568.291016	4687.795898
567.027344	4942.097656
565.763672	4832.490234
564.498047	4924.568359
563.234375	4959.293457
561.968750	4903.098145
560.703125	4890.392578
559.437500	4877.691406
558.171875	4916.350098
556.906250	4996.467773
555.640625	4873.179199
554.375000	4917.740723
553.107422	4946.495605
551.839844	4967.346191
550.574219	4895.450195
549.306641	5097.803223
548.039063	4972.651855
546.771484	4843.599121
545.503906	4951.208008
544.236328	4832.061035
542.966797	4894.298828
541.699219	5029.433105
540.429688	5044.324219
539.160156	4921.302734
537.892578	4914.539063
536.623047	4911.716797
535.353516	5021.132324
534.082031	5002.542480
532.812500	4954.432617
531.542969	4961.444824
530.271484	4996.001953
529.001953	5046.286133
527.730469	5004.102539
526.458984	5007.166992
525.187500	5025.960938
523.916016	5044.748535
522.644531	5032.078613
521.373047	5084.268066
520.099609	5130.544434
518.828125	5021.598633
517.554688	5287.870117
516.281250	5216.249512
515.007813	5077.890625
513.734375	5159.465820
512.460938	5244.938477
511.187500	5251.877441
509.914063	5292.172363
508.638672	5208.852539
507.365234	5194.216797
506.089844	5324.716309
504.814453	5319.869141
503.541016	5356.194824
502.265625	5335.662109
500.988281	5350.413574
499.712891	5261.305664
498.437500	5362.268066
497.160156	5508.249023
495.884766	5233.102051
494.607422	5355.556152
493.330078	5448.600098
492.052734	5302.799805
490.775391	5384.077637
489.498047	5359.659668
488.220703	5321.555176
486.943359	5402.786621
485.664063	5366.643555
484.386719	5461.526367
483.107422	5343.270996
481.828125	5313.020508
480.548828	5374.637695
479.269531	5295.539551
477.990234	5357.138184
476.710938	5258.536621
475.429688	5355.274414
474.150391	5252.801758
472.869141	5218.697266
471.589844	5344.671875
470.308594	5207.123047
469.027344	5253.049805
467.746094	5117.515625
466.464844	5268.777832
465.181641	5094.280762
463.900391	5268.894043
462.617188	5330.366211
461.335938	5214.428711
460.052734	5223.265625
458.769531	5200.921387
457.486328	5190.274414
456.203125	5158.203613
454.919922	5223.524902
453.634766	5208.984375
452.351563	5348.257324
451.066406	5185.757813
449.783203	5251.028320
448.498047	5285.140625
447.212891	5218.069824
445.927734	5162.694336
444.642578	5249.316406
443.357422	5221.177734
442.070313	5266.930176
440.785156	5380.702637
439.498047	5298.135742
438.212891	5236.973145
436.925781	5337.090332
435.638672	5388.609375
434.351563	5343.000000
433.064453	5291.580566
431.775391	5327.547363
430.488281	5363.501465
429.199219	5521.716309
427.912109	5381.037598
426.623047	5467.407227
425.333984	5487.792969
424.044922	5459.683105
422.755859	5559.567871
421.466797	5601.252930
420.177734	5509.167969
418.886719	5632.248535
417.597656	5511.122559
416.306641	5576.035645
415.015625	5669.982910
413.724609	5572.154785
412.433594	5578.928711
411.142578	5676.697754
409.851563	5493.744629
408.560547	5506.334473
407.267578	5553.751953
405.976563	5661.130371
404.683594	5497.650879
403.390625	5556.648438
402.097656	5540.209473
400.804688	5545.042969
399.511719	5573.071777
398.218750	5732.517090
396.923828	5598.181152
395.630859	5583.679688
394.335938	5594.295898
393.042969	5583.662598
391.748047	5625.171387
390.453125	5411.810547
389.158203	5661.815918
387.861328	5568.185547
386.566406	5497.744141
385.271484	5485.208008
383.974609	5515.115234
382.677734	5400.359375
381.382813	5466.909180
380.085938	5496.803223
378.789063	5426.446777
377.492188	5539.212891
376.193359	5459.238281
374.896484	5444.797852
373.599609	5447.699707
372.300781	5581.568848
371.001953	5312.925781
369.705078	5442.920898
368.406250	5492.020020
367.107422	5423.697754
365.806641	5517.041992
364.507813	5375.626953
363.208984	5397.771973
361.908203	5383.365723
360.609375	5513.187988
359.308594	5435.318848
358.007813	5572.775391
356.707031	5454.561035
355.406250	5397.880371
354.105469	5270.131348
352.802734	5411.361816
351.501953	5439.225098
350.199219	5503.564453
348.898438	5446.923828
347.595703	5426.775391
346.292969	5354.812988
344.990234	5286.713867
343.687500	5404.743652
342.382813	5442.164551
341.080078	5422.033203
339.777344	5436.426270
338.472656	5239.913574
337.167969	5453.694336
335.863281	5343.494141
334.558594	5398.131348
333.253906	5272.651855
331.949219	5346.437988
330.644531	5494.893066
329.337891	5212.437500
328.033203	5439.362305
326.726563	5266.127441
325.419922	5403.008789
324.113281	5348.482910
322.806641	5341.807617
321.500000	5373.392578
320.193359	5328.462402
318.886719	5436.528320
317.578125	5382.043457
316.271484	5367.720215
314.962891	5393.538574
313.654297	5446.100098
312.345703	5244.536133
311.037109	5146.195801
309.728516	5427.961426
308.419922	5341.080078
307.109375	5382.148438
305.800781	5375.479492
304.490234	5374.538086
303.179688	5455.651367
301.869141	5393.643066
300.558594	5480.446777
299.248047	5452.785645
297.937500	5406.065430
296.625000	5426.090820
295.314453	5518.545898
294.001953	5374.636719
292.691406	5377.506348
291.378906	5340.364746
290.066406	5415.625488
288.753906	5410.867188
287.441406	5269.006348
286.126953	5340.431152
284.814453	5322.363281
283.500000	5544.108887
282.187500	5408.031250
280.873047	5332.883789
279.558594	5326.242676
278.244141	5353.837402
276.929688	5312.966309
275.615234	5429.911133
274.298828	5354.824219
272.984375	5294.968262
271.667969	5368.148926
270.351563	5433.704102
269.037109	5394.760254
267.720703	5412.806641
266.404297	5303.620605
265.085938	5431.792969
263.769531	5322.641113
262.453125	5319.810059
261.134766	5311.286621
259.816406	5262.924316
258.500000	5286.661133
257.181641	5297.112793
255.863281	5309.457520
254.544922	5395.737793
253.224609	5288.639160
251.906250	5253.597168
250.585938	5468.694336
249.267578	5316.168945
247.947266	5442.150391
246.626953	5359.757324
245.306641	5353.136230
243.986328	5355.983398
242.666016	5368.293457
241.345703	5390.062500
240.023438	5328.564453
238.703125	5446.819824
237.380859	5411.814941
236.058594	5452.472656
234.736328	5438.278809
233.414063	5416.527832
232.091797	5513.870117
230.769531	5306.900391
229.445313	5530.829590
228.123047	5597.871582
226.798828	5570.443848
225.476563	5486.367188
224.152344	5494.845215
222.828125	5503.319824
221.503906	5515.566406
220.177734	5461.753906
218.853516	5398.525879
217.527344	5486.247559
216.203125	5570.166016
214.876953	5463.574707
213.550781	5509.755371
212.224609	5484.278320
210.898438	5383.412598
209.572266	5467.274414
208.246094	5568.064941
206.917969	5486.076660
205.591797	5509.599121
204.263672	5514.280762
202.935547	5524.609375
201.609375	5662.953125
200.281250	5618.664551
198.951172	5640.260742
197.623047	5648.677246
196.294922	5717.292480
194.964844	5701.239258
193.636719	5726.565918
192.306641	5806.412598
190.976563	5874.951172
189.646484	5603.247559
188.316406	5726.297363
186.986328	5770.386230
185.654297	5979.781738
184.324219	5986.243164
182.992188	5945.751953
181.662109	5927.807129
180.330078	6020.631348
178.998047	6021.449219
177.666016	6041.033203
176.333984	6113.147949
175.000000	6023.899414
173.667969	5960.941406
172.333984	6145.553223
171.001953	6071.345703
169.667969	5963.419434
168.333984	6114.193359
167.000000	6135.605957
165.666016	6132.652344
164.332031	6075.371094
162.996094	6104.270508
161.662109	6020.796387
160.326172	6178.889648
158.992188	6011.187988
157.656250	6073.768555
156.320313	6237.382324
154.984375	6236.284180
153.646484	6261.376465
152.310547	6153.660156
150.974609	6175.017578
149.636719	6390.821289
148.298828	6428.953613
146.960938	6293.246094
145.625000	6252.893555
144.285156	6380.714355
142.947266	6454.314453
141.609375	6423.292969
140.271484	6564.087402
138.931641	6458.372070
137.591797	6593.509766
136.253906	6657.674316
134.914063	6512.808594
133.574219	6575.098145
132.232422	6715.715820
130.892578	6738.778809
129.552734	6810.318848
128.210938	6734.539063
126.871094	6632.687012
125.529297	6819.765137
124.187500	6775.702148
122.845703	6968.277832
121.503906	6818.021484
120.162109	6746.043457
118.818359	6813.754883
117.476563	6827.448242
116.132813	6753.644531
114.789063	6892.043457
113.447266	6916.880371
112.103516	6846.819824
110.759766	6914.440430
109.414063	6941.119141
108.070313	6806.006348
106.726563	6998.166016
105.380859	7000.649414
104.035156	6986.403809
102.689453	6923.849121
101.345703	7008.091797
99.998047	7090.446777
98.652344	6920.184082
97.306641	7058.233398
95.960938	7214.799805
94.613281	7289.634277
93.265625	7308.763184
91.919922	7364.997559
90.572266	7334.012695
89.224609	7230.694336
87.875000	7333.277832
86.527344	7376.486816
85.179688	7390.016602
83.830078	7492.517090
82.482422	7431.887207
81.132813	7210.066406
79.783203	7179.149902
78.433594	7433.507324
77.083984	7391.449707
75.734375	7367.923828
74.382813	7331.446289
73.033203	7381.980469
71.681641	7380.676758
70.330078	7266.498535
68.978516	7119.059570
67.626953	7234.335449
66.275391	7046.266113
64.923828	6978.454102
63.572266	6788.647461
62.218750	6946.413086
60.867188	6810.273438
59.513672	6720.376465
58.160156	6497.494141
56.806641	6115.837402
55.453125	6147.999023
54.099609	5738.841309
52.744141	5708.288574
51.390625	5509.776367
